
# From lspdd.org
# 
# Name: DEL Dals SWIVLEDHP-4K Domestique
# Indice spectral Valeur 
# MSI 0.41 
# SLI 0.57 
# IPI 0.64 
# Pourcentage de bleu 26.0 
# Caractéristique Valeur 
# CCT calculée (K) 3652 
# CCT du fabricant (K) 4000 
# Tension (V) 12 
# Puissance (W) 4.3 
# Efficacité lumineuse (Lum/W) 139.0 
#
# Image: '/app/system/img_2s/2703/medium_image2.JPG?1464613331'
# Image: '/app/system/img_1s/2703/medium_image1.JPG?1464613328'
# 

  273.00  0.0000E+000  
  273.50  0.0000E+000  
  274.00  0.0000E+000  
  274.50  0.0000E+000  
  275.00  0.0000E+000  
  275.50  0.0000E+000  
  276.00  0.0000E+000  
  276.50  0.0000E+000  
  277.00  0.0000E+000  
  277.50  0.0000E+000  
  278.00  0.0000E+000  
  278.50  0.0000E+000  
  279.00  0.0000E+000  
  279.50  0.0000E+000  
  280.00  0.0000E+000  
  280.50  0.0000E+000  
  281.00  0.0000E+000  
  281.50  0.0000E+000  
  282.00  0.0000E+000  
  282.50  0.0000E+000  
  283.00  0.0000E+000  
  283.50  0.0000E+000  
  284.00  0.0000E+000  
  284.50  0.0000E+000  
  285.00  0.0000E+000  
  285.50  0.0000E+000  
  286.00  0.0000E+000  
  286.50  0.0000E+000  
  287.00  0.0000E+000  
  287.50  0.0000E+000  
  288.00  0.0000E+000  
  288.50  0.0000E+000  
  289.00  0.0000E+000  
  289.50  0.0000E+000  
  290.00  0.0000E+000  
  290.50  0.0000E+000  
  291.00  0.0000E+000  
  291.50  0.0000E+000  
  292.00  0.0000E+000  
  292.50  0.0000E+000  
  293.00  0.0000E+000  
  293.50  0.0000E+000  
  294.00  0.0000E+000  
  294.50  0.0000E+000  
  295.00  0.0000E+000  
  295.50  0.0000E+000  
  296.00  0.0000E+000  
  296.50  0.0000E+000  
  297.00  0.0000E+000  
  297.50  0.0000E+000  
  298.00  0.0000E+000  
  298.50  0.0000E+000  
  299.00  0.0000E+000  
  299.50  0.0000E+000  
  300.00  5.4915E-005  
  300.50  1.6594E-004  
  301.00  1.5745E-004  
  301.50  1.3467E-004  
  302.00  1.3375E-004  
  302.50  1.1092E-004  
  303.00  1.6188E-004  
  303.50  2.1077E-004  
  304.00  2.3878E-004  
  304.50  2.7685E-004  
  305.00  2.6127E-004  
  305.50  2.9410E-004  
  306.00  2.4401E-004  
  306.50  2.0521E-004  
  307.00  2.0075E-004  
  307.50  1.1299E-004  
  308.00  1.1333E-004  
  308.50  8.0984E-005  
  309.00  9.1774E-005  
  309.50  1.9406E-004  
  310.00  2.6002E-004  
  310.50  3.2348E-004  
  311.00  3.3444E-004  
  311.50  3.3524E-004  
  312.00  3.3471E-004  
  312.50  3.1689E-004  
  313.00  3.2099E-004  
  313.50  2.4365E-004  
  314.00  2.4712E-004  
  314.50  2.9143E-004  
  315.00  3.0082E-004  
  315.50  3.1900E-004  
  316.00  3.2239E-004  
  316.50  3.0891E-004  
  317.00  3.2079E-004  
  317.50  3.6314E-004  
  318.00  3.3580E-004  
  318.50  3.4022E-004  
  319.00  3.2955E-004  
  319.50  2.9015E-004  
  320.00  2.8580E-004  
  320.50  2.8439E-004  
  321.00  2.8290E-004  
  321.50  3.3559E-004  
  322.00  3.7999E-004  
  322.50  3.5443E-004  
  323.00  3.3093E-004  
  323.50  2.5936E-004  
  324.00  2.2680E-004  
  324.50  2.5425E-004  
  325.00  2.8123E-004  
  325.50  2.5702E-004  
  326.00  1.9653E-004  
  326.50  1.1460E-004  
  327.00  8.2862E-005  
  327.50  1.7910E-004  
  328.00  2.7796E-004  
  328.50  4.1500E-004  
  329.00  4.8713E-004  
  329.50  4.9742E-004  
  330.00  4.5172E-004  
  330.50  4.3130E-004  
  331.00  3.5576E-004  
  331.50  3.3570E-004  
  332.00  2.7799E-004  
  332.50  1.6718E-004  
  333.00  1.9926E-004  
  333.50  2.1478E-004  
  334.00  2.9645E-004  
  334.50  4.3383E-004  
  335.00  4.4537E-004  
  335.50  4.7598E-004  
  336.00  4.8850E-004  
  336.50  4.5727E-004  
  337.00  4.2206E-004  
  337.50  3.8447E-004  
  338.00  3.6193E-004  
  338.50  3.5605E-004  
  339.00  3.2136E-004  
  339.50  2.8002E-004  
  340.00  2.6100E-004  
  340.50  2.5995E-004  
  341.00  2.8191E-004  
  341.50  3.4216E-004  
  342.00  3.6529E-004  
  342.50  3.6417E-004  
  343.00  3.6033E-004  
  343.50  3.3130E-004  
  344.00  3.4809E-004  
  344.50  3.6270E-004  
  345.00  4.1935E-004  
  345.50  4.5607E-004  
  346.00  4.3497E-004  
  346.50  4.7874E-004  
  347.00  4.5499E-004  
  347.50  3.6058E-004  
  348.00  2.4543E-004  
  348.50  1.8301E-004  
  349.00  2.2087E-004  
  349.50  3.4476E-004  
  350.00  5.0390E-004  
  350.50  5.3398E-004  
  351.00  5.2543E-004  
  351.50  4.8848E-004  
  352.00  4.5619E-004  
  352.50  4.5297E-004  
  353.00  4.1225E-004  
  353.50  4.0830E-004  
  354.00  3.7796E-004  
  354.50  4.0818E-004  
  355.00  4.7129E-004  
  355.50  5.2903E-004  
  356.00  5.5763E-004  
  356.50  5.1274E-004  
  357.00  4.2276E-004  
  357.50  3.3613E-004  
  358.00  2.5669E-004  
  358.50  2.6783E-004  
  359.00  3.3693E-004  
  359.50  4.2956E-004  
  360.00  5.6393E-004  
  360.50  5.5884E-004  
  361.00  5.1831E-004  
  361.50  4.6114E-004  
  362.00  4.1377E-004  
  362.50  5.1416E-004  
  363.00  6.2076E-004  
  363.50  7.1553E-004  
  364.00  7.3476E-004  
  364.50  6.6026E-004  
  365.00  5.9091E-004  
  365.50  5.0562E-004  
  366.00  3.8978E-004  
  366.50  3.3641E-004  
  367.00  2.8699E-004  
  367.50  2.9678E-004  
  368.00  3.8034E-004  
  368.50  4.4136E-004  
  369.00  5.2335E-004  
  369.50  5.4992E-004  
  370.00  5.1282E-004  
  370.50  5.1710E-004  
  371.00  4.3866E-004  
  371.50  4.3319E-004  
  372.00  4.3797E-004  
  372.50  4.1894E-004  
  373.00  4.6352E-004  
  373.50  4.7988E-004  
  374.00  4.8173E-004  
  374.50  5.5149E-004  
  375.00  5.8449E-004  
  375.50  5.6941E-004  
  376.00  5.4867E-004  
  376.50  5.3528E-004  
  377.00  5.1980E-004  
  377.50  5.5177E-004  
  378.00  5.7941E-004  
  378.50  5.4546E-004  
  379.00  6.0650E-004  
  379.50  6.4878E-004  
  380.00  6.6816E-004  
  380.50  6.6351E-004  
  381.00  5.9781E-004  
  381.50  5.2309E-004  
  382.00  4.9794E-004  
  382.50  5.1357E-004  
  383.00  5.7267E-004  
  383.50  6.1253E-004  
  384.00  6.1107E-004  
  384.50  5.8885E-004  
  385.00  5.6027E-004  
  385.50  5.6723E-004  
  386.00  5.7671E-004  
  386.50  5.8757E-004  
  387.00  5.8397E-004  
  387.50  5.9851E-004  
  388.00  6.8370E-004  
  388.50  7.2698E-004  
  389.00  7.5329E-004  
  389.50  7.6851E-004  
  390.00  7.8036E-004  
  390.50  8.2835E-004  
  391.00  9.1555E-004  
  391.50  9.0570E-004  
  392.00  8.7436E-004  
  392.50  8.6562E-004  
  393.00  8.4309E-004  
  393.50  8.8085E-004  
  394.00  8.7165E-004  
  394.50  8.1160E-004  
  395.00  7.7634E-004  
  395.50  7.7890E-004  
  396.00  8.2303E-004  
  396.50  9.1351E-004  
  397.00  9.9955E-004  
  397.50  1.0465E-003  
  398.00  1.1374E-003  
  398.50  1.2125E-003  
  399.00  1.2027E-003  
  399.50  1.1803E-003  
  400.00  1.1782E-003  
  400.50  1.1734E-003  
  401.00  1.2222E-003  
  401.50  1.2587E-003  
  402.00  1.2833E-003  
  402.50  1.3938E-003  
  403.00  1.4628E-003  
  403.50  1.5352E-003  
  404.00  1.6262E-003  
  404.50  1.6696E-003  
  405.00  1.7526E-003  
  405.50  1.8371E-003  
  406.00  1.9075E-003  
  406.50  1.9984E-003  
  407.00  2.0569E-003  
  407.50  2.1335E-003  
  408.00  2.2451E-003  
  408.50  2.3610E-003  
  409.00  2.5151E-003  
  409.50  2.6981E-003  
  410.00  2.9431E-003  
  410.50  3.1943E-003  
  411.00  3.4119E-003  
  411.50  3.6552E-003  
  412.00  3.9367E-003  
  412.50  4.3053E-003  
  413.00  4.6824E-003  
  413.50  4.9858E-003  
  414.00  5.2530E-003  
  414.50  5.5394E-003  
  415.00  5.9626E-003  
  415.50  6.4460E-003  
  416.00  7.0086E-003  
  416.50  7.5727E-003  
  417.00  8.2099E-003  
  417.50  8.9172E-003  
  418.00  9.6830E-003  
  418.50  1.0492E-002  
  419.00  1.1355E-002  
  419.50  1.2307E-002  
  420.00  1.3250E-002  
  420.50  1.4207E-002  
  421.00  1.5248E-002  
  421.50  1.6375E-002  
  422.00  1.7648E-002  
  422.50  1.8856E-002  
  423.00  2.0195E-002  
  423.50  2.1617E-002  
  424.00  2.3139E-002  
  424.50  2.4945E-002  
  425.00  2.6597E-002  
  425.50  2.8268E-002  
  426.00  2.9863E-002  
  426.50  3.1449E-002  
  427.00  3.3115E-002  
  427.50  3.4889E-002  
  428.00  3.6818E-002  
  428.50  3.8904E-002  
  429.00  4.1139E-002  
  429.50  4.3302E-002  
  430.00  4.5424E-002  
  430.50  4.7617E-002  
  431.00  4.9929E-002  
  431.50  5.2422E-002  
  432.00  5.4943E-002  
  432.50  5.7429E-002  
  433.00  6.0058E-002  
  433.50  6.3091E-002  
  434.00  6.6334E-002  
  434.50  6.9562E-002  
  435.00  7.2512E-002  
  435.50  7.5465E-002  
  436.00  7.8674E-002  
  436.50  8.2198E-002  
  437.00  8.5921E-002  
  437.50  8.9829E-002  
  438.00  9.3620E-002  
  438.50  9.7869E-002  
  439.00  1.0220E-001  
  439.50  1.0682E-001  
  440.00  1.1156E-001  
  440.50  1.1601E-001  
  441.00  1.2029E-001  
  441.50  1.2421E-001  
  442.00  1.2860E-001  
  442.50  1.3270E-001  
  443.00  1.3665E-001  
  443.50  1.4027E-001  
  444.00  1.4337E-001  
  444.50  1.4635E-001  
  445.00  1.4890E-001  
  445.50  1.5127E-001  
  446.00  1.5261E-001  
  446.50  1.5332E-001  
  447.00  1.5350E-001  
  447.50  1.5354E-001  
  448.00  1.5295E-001  
  448.50  1.5158E-001  
  449.00  1.4971E-001  
  449.50  1.4773E-001  
  450.00  1.4486E-001  
  450.50  1.4149E-001  
  451.00  1.3739E-001  
  451.50  1.3322E-001  
  452.00  1.2971E-001  
  452.50  1.2606E-001  
  453.00  1.2258E-001  
  453.50  1.1858E-001  
  454.00  1.1400E-001  
  454.50  1.0928E-001  
  455.00  1.0456E-001  
  455.50  1.0027E-001  
  456.00  9.6321E-002  
  456.50  9.2744E-002  
  457.00  8.9486E-002  
  457.50  8.6060E-002  
  458.00  8.2663E-002  
  458.50  7.9358E-002  
  459.00  7.6310E-002  
  459.50  7.3477E-002  
  460.00  7.0698E-002  
  460.50  6.7915E-002  
  461.00  6.5299E-002  
  461.50  6.3057E-002  
  462.00  6.1011E-002  
  462.50  5.9039E-002  
  463.00  5.7098E-002  
  463.50  5.5016E-002  
  464.00  5.3319E-002  
  464.50  5.1413E-002  
  465.00  4.9561E-002  
  465.50  4.7719E-002  
  466.00  4.5933E-002  
  466.50  4.4381E-002  
  467.00  4.2977E-002  
  467.50  4.1660E-002  
  468.00  4.0346E-002  
  468.50  3.8932E-002  
  469.00  3.7374E-002  
  469.50  3.6058E-002  
  470.00  3.5094E-002  
  470.50  3.4191E-002  
  471.00  3.3224E-002  
  471.50  3.2047E-002  
  472.00  3.1006E-002  
  472.50  3.0024E-002  
  473.00  2.9033E-002  
  473.50  2.8099E-002  
  474.00  2.7249E-002  
  474.50  2.6680E-002  
  475.00  2.6124E-002  
  475.50  2.5492E-002  
  476.00  2.4851E-002  
  476.50  2.4263E-002  
  477.00  2.3831E-002  
  477.50  2.3402E-002  
  478.00  2.3091E-002  
  478.50  2.2723E-002  
  479.00  2.2344E-002  
  479.50  2.1978E-002  
  480.00  2.1631E-002  
  480.50  2.1346E-002  
  481.00  2.1012E-002  
  481.50  2.0741E-002  
  482.00  2.0503E-002  
  482.50  2.0342E-002  
  483.00  2.0173E-002  
  483.50  2.0048E-002  
  484.00  1.9924E-002  
  484.50  1.9840E-002  
  485.00  1.9818E-002  
  485.50  1.9823E-002  
  486.00  1.9889E-002  
  486.50  1.9983E-002  
  487.00  2.0089E-002  
  487.50  2.0221E-002  
  488.00  2.0370E-002  
  488.50  2.0546E-002  
  489.00  2.0783E-002  
  489.50  2.1082E-002  
  490.00  2.1404E-002  
  490.50  2.1720E-002  
  491.00  2.2109E-002  
  491.50  2.2553E-002  
  492.00  2.3052E-002  
  492.50  2.3544E-002  
  493.00  2.4046E-002  
  493.50  2.4689E-002  
  494.00  2.5405E-002  
  494.50  2.6150E-002  
  495.00  2.6902E-002  
  495.50  2.7692E-002  
  496.00  2.8590E-002  
  496.50  2.9489E-002  
  497.00  3.0412E-002  
  497.50  3.1402E-002  
  498.00  3.2414E-002  
  498.50  3.3544E-002  
  499.00  3.4711E-002  
  499.50  3.5874E-002  
  500.00  3.7113E-002  
  500.50  3.8283E-002  
  501.00  3.9544E-002  
  501.50  4.0855E-002  
  502.00  4.2183E-002  
  502.50  4.3621E-002  
  503.00  4.5172E-002  
  503.50  4.6724E-002  
  504.00  4.8253E-002  
  504.50  4.9733E-002  
  505.00  5.1261E-002  
  505.50  5.2814E-002  
  506.00  5.4375E-002  
  506.50  5.5946E-002  
  507.00  5.7628E-002  
  507.50  5.9351E-002  
  508.00  6.1168E-002  
  508.50  6.2889E-002  
  509.00  6.4605E-002  
  509.50  6.6275E-002  
  510.00  6.7938E-002  
  510.50  6.9646E-002  
  511.00  7.1472E-002  
  511.50  7.3267E-002  
  512.00  7.5062E-002  
  512.50  7.6868E-002  
  513.00  7.8623E-002  
  513.50  8.0233E-002  
  514.00  8.1710E-002  
  514.50  8.3211E-002  
  515.00  8.4808E-002  
  515.50  8.6513E-002  
  516.00  8.8209E-002  
  516.50  8.9915E-002  
  517.00  9.1605E-002  
  517.50  9.3108E-002  
  518.00  9.4490E-002  
  518.50  9.5914E-002  
  519.00  9.7389E-002  
  519.50  9.8888E-002  
  520.00  1.0034E-001  
  520.50  1.0179E-001  
  521.00  1.0319E-001  
  521.50  1.0458E-001  
  522.00  1.0582E-001  
  522.50  1.0706E-001  
  523.00  1.0830E-001  
  523.50  1.0958E-001  
  524.00  1.1080E-001  
  524.50  1.1201E-001  
  525.00  1.1327E-001  
  525.50  1.1442E-001  
  526.00  1.1543E-001  
  526.50  1.1637E-001  
  527.00  1.1741E-001  
  527.50  1.1851E-001  
  528.00  1.1953E-001  
  528.50  1.2042E-001  
  529.00  1.2122E-001  
  529.50  1.2204E-001  
  530.00  1.2288E-001  
  530.50  1.2373E-001  
  531.00  1.2448E-001  
  531.50  1.2528E-001  
  532.00  1.2604E-001  
  532.50  1.2683E-001  
  533.00  1.2759E-001  
  533.50  1.2835E-001  
  534.00  1.2922E-001  
  534.50  1.3008E-001  
  535.00  1.3089E-001  
  535.50  1.3160E-001  
  536.00  1.3228E-001  
  536.50  1.3291E-001  
  537.00  1.3346E-001  
  537.50  1.3402E-001  
  538.00  1.3463E-001  
  538.50  1.3521E-001  
  539.00  1.3579E-001  
  539.50  1.3629E-001  
  540.00  1.3690E-001  
  540.50  1.3750E-001  
  541.00  1.3810E-001  
  541.50  1.3870E-001  
  542.00  1.3927E-001  
  542.50  1.3985E-001  
  543.00  1.4039E-001  
  543.50  1.4093E-001  
  544.00  1.4133E-001  
  544.50  1.4181E-001  
  545.00  1.4229E-001  
  545.50  1.4290E-001  
  546.00  1.4334E-001  
  546.50  1.4375E-001  
  547.00  1.4425E-001  
  547.50  1.4478E-001  
  548.00  1.4527E-001  
  548.50  1.4566E-001  
  549.00  1.4611E-001  
  549.50  1.4661E-001  
  550.00  1.4705E-001  
  550.50  1.4758E-001  
  551.00  1.4804E-001  
  551.50  1.4859E-001  
  552.00  1.4900E-001  
  552.50  1.4939E-001  
  553.00  1.4975E-001  
  553.50  1.5014E-001  
  554.00  1.5054E-001  
  554.50  1.5102E-001  
  555.00  1.5140E-001  
  555.50  1.5182E-001  
  556.00  1.5228E-001  
  556.50  1.5284E-001  
  557.00  1.5329E-001  
  557.50  1.5375E-001  
  558.00  1.5417E-001  
  558.50  1.5457E-001  
  559.00  1.5492E-001  
  559.50  1.5529E-001  
  560.00  1.5575E-001  
  560.50  1.5620E-001  
  561.00  1.5671E-001  
  561.50  1.5719E-001  
  562.00  1.5761E-001  
  562.50  1.5799E-001  
  563.00  1.5829E-001  
  563.50  1.5865E-001  
  564.00  1.5906E-001  
  564.50  1.5939E-001  
  565.00  1.5981E-001  
  565.50  1.6021E-001  
  566.00  1.6063E-001  
  566.50  1.6098E-001  
  567.00  1.6127E-001  
  567.50  1.6147E-001  
  568.00  1.6170E-001  
  568.50  1.6190E-001  
  569.00  1.6218E-001  
  569.50  1.6251E-001  
  570.00  1.6282E-001  
  570.50  1.6316E-001  
  571.00  1.6349E-001  
  571.50  1.6381E-001  
  572.00  1.6410E-001  
  572.50  1.6429E-001  
  573.00  1.6462E-001  
  573.50  1.6490E-001  
  574.00  1.6525E-001  
  574.50  1.6547E-001  
  575.00  1.6570E-001  
  575.50  1.6603E-001  
  576.00  1.6629E-001  
  576.50  1.6657E-001  
  577.00  1.6685E-001  
  577.50  1.6714E-001  
  578.00  1.6737E-001  
  578.50  1.6760E-001  
  579.00  1.6770E-001  
  579.50  1.6779E-001  
  580.00  1.6787E-001  
  580.50  1.6807E-001  
  581.00  1.6840E-001  
  581.50  1.6860E-001  
  582.00  1.6856E-001  
  582.50  1.6840E-001  
  583.00  1.6842E-001  
  583.50  1.6861E-001  
  584.00  1.6888E-001  
  584.50  1.6914E-001  
  585.00  1.6937E-001  
  585.50  1.6944E-001  
  586.00  1.6943E-001  
  586.50  1.6919E-001  
  587.00  1.6913E-001  
  587.50  1.6935E-001  
  588.00  1.6959E-001  
  588.50  1.6976E-001  
  589.00  1.6959E-001  
  589.50  1.6937E-001  
  590.00  1.6932E-001  
  590.50  1.6933E-001  
  591.00  1.6948E-001  
  591.50  1.6969E-001  
  592.00  1.6973E-001  
  592.50  1.6961E-001  
  593.00  1.6942E-001  
  593.50  1.6920E-001  
  594.00  1.6909E-001  
  594.50  1.6900E-001  
  595.00  1.6888E-001  
  595.50  1.6871E-001  
  596.00  1.6853E-001  
  596.50  1.6829E-001  
  597.00  1.6792E-001  
  597.50  1.6751E-001  
  598.00  1.6708E-001  
  598.50  1.6679E-001  
  599.00  1.6654E-001  
  599.50  1.6616E-001  
  600.00  1.6565E-001  
  600.50  1.6507E-001  
  601.00  1.6487E-001  
  601.50  1.6480E-001  
  602.00  1.6470E-001  
  602.50  1.6426E-001  
  603.00  1.6368E-001  
  603.50  1.6312E-001  
  604.00  1.6261E-001  
  604.50  1.6204E-001  
  605.00  1.6154E-001  
  605.50  1.6112E-001  
  606.00  1.6073E-001  
  606.50  1.6033E-001  
  607.00  1.5979E-001  
  607.50  1.5906E-001  
  608.00  1.5824E-001  
  608.50  1.5763E-001  
  609.00  1.5736E-001  
  609.50  1.5716E-001  
  610.00  1.5664E-001  
  610.50  1.5590E-001  
  611.00  1.5514E-001  
  611.50  1.5455E-001  
  612.00  1.5390E-001  
  612.50  1.5333E-001  
  613.00  1.5266E-001  
  613.50  1.5204E-001  
  614.00  1.5129E-001  
  614.50  1.5047E-001  
  615.00  1.4972E-001  
  615.50  1.4916E-001  
  616.00  1.4854E-001  
  616.50  1.4783E-001  
  617.00  1.4697E-001  
  617.50  1.4637E-001  
  618.00  1.4574E-001  
  618.50  1.4523E-001  
  619.00  1.4447E-001  
  619.50  1.4354E-001  
  620.00  1.4266E-001  
  620.50  1.4176E-001  
  621.00  1.4118E-001  
  621.50  1.4049E-001  
  622.00  1.3994E-001  
  622.50  1.3907E-001  
  623.00  1.3809E-001  
  623.50  1.3727E-001  
  624.00  1.3670E-001  
  624.50  1.3601E-001  
  625.00  1.3503E-001  
  625.50  1.3395E-001  
  626.00  1.3324E-001  
  626.50  1.3259E-001  
  627.00  1.3181E-001  
  627.50  1.3083E-001  
  628.00  1.2987E-001  
  628.50  1.2912E-001  
  629.00  1.2855E-001  
  629.50  1.2802E-001  
  630.00  1.2738E-001  
  630.50  1.2637E-001  
  631.00  1.2521E-001  
  631.50  1.2421E-001  
  632.00  1.2336E-001  
  632.50  1.2263E-001  
  633.00  1.2195E-001  
  633.50  1.2116E-001  
  634.00  1.2034E-001  
  634.50  1.1942E-001  
  635.00  1.1855E-001  
  635.50  1.1751E-001  
  636.00  1.1639E-001  
  636.50  1.1554E-001  
  637.00  1.1494E-001  
  637.50  1.1425E-001  
  638.00  1.1330E-001  
  638.50  1.1228E-001  
  639.00  1.1142E-001  
  639.50  1.1081E-001  
  640.00  1.1020E-001  
  640.50  1.0946E-001  
  641.00  1.0849E-001  
  641.50  1.0743E-001  
  642.00  1.0647E-001  
  642.50  1.0559E-001  
  643.00  1.0464E-001  
  643.50  1.0372E-001  
  644.00  1.0289E-001  
  644.50  1.0202E-001  
  645.00  1.0122E-001  
  645.50  1.0031E-001  
  646.00  9.9635E-002  
  646.50  9.8895E-002  
  647.00  9.7919E-002  
  647.50  9.6703E-002  
  648.00  9.5566E-002  
  648.50  9.4639E-002  
  649.00  9.3803E-002  
  649.50  9.2930E-002  
  650.00  9.2062E-002  
  650.50  9.1225E-002  
  651.00  9.0445E-002  
  651.50  8.9652E-002  
  652.00  8.8900E-002  
  652.50  8.7943E-002  
  653.00  8.7035E-002  
  653.50  8.6124E-002  
  654.00  8.5374E-002  
  654.50  8.4497E-002  
  655.00  8.3619E-002  
  655.50  8.2654E-002  
  656.00  8.1845E-002  
  656.50  8.1046E-002  
  657.00  8.0229E-002  
  657.50  7.9351E-002  
  658.00  7.8500E-002  
  658.50  7.7652E-002  
  659.00  7.6607E-002  
  659.50  7.5714E-002  
  660.00  7.4917E-002  
  660.50  7.4315E-002  
  661.00  7.3563E-002  
  661.50  7.2868E-002  
  662.00  7.2081E-002  
  662.50  7.1317E-002  
  663.00  7.0532E-002  
  663.50  6.9767E-002  
  664.00  6.9030E-002  
  664.50  6.8157E-002  
  665.00  6.7389E-002  
  665.50  6.6599E-002  
  666.00  6.5880E-002  
  666.50  6.5039E-002  
  667.00  6.4161E-002  
  667.50  6.3497E-002  
  668.00  6.2745E-002  
  668.50  6.2046E-002  
  669.00  6.1198E-002  
  669.50  6.0462E-002  
  670.00  5.9780E-002  
  670.50  5.9029E-002  
  671.00  5.8364E-002  
  671.50  5.7617E-002  
  672.00  5.7013E-002  
  672.50  5.6406E-002  
  673.00  5.5767E-002  
  673.50  5.4936E-002  
  674.00  5.4092E-002  
  674.50  5.3418E-002  
  675.00  5.2864E-002  
  675.50  5.2266E-002  
  676.00  5.1516E-002  
  676.50  5.0804E-002  
  677.00  5.0228E-002  
  677.50  4.9603E-002  
  678.00  4.8934E-002  
  678.50  4.8204E-002  
  679.00  4.7720E-002  
  679.50  4.7133E-002  
  680.00  4.6710E-002  
  680.50  4.6003E-002  
  681.00  4.5446E-002  
  681.50  4.4629E-002  
  682.00  4.4075E-002  
  682.50  4.3610E-002  
  683.00  4.3163E-002  
  683.50  4.2524E-002  
  684.00  4.1828E-002  
  684.50  4.1250E-002  
  685.00  4.0751E-002  
  685.50  4.0339E-002  
  686.00  3.9886E-002  
  686.50  3.9378E-002  
  687.00  3.8811E-002  
  687.50  3.8360E-002  
  688.00  3.7893E-002  
  688.50  3.7321E-002  
  689.00  3.6725E-002  
  689.50  3.6221E-002  
  690.00  3.5860E-002  
  690.50  3.5562E-002  
  691.00  3.5223E-002  
  691.50  3.4787E-002  
  692.00  3.4252E-002  
  692.50  3.3601E-002  
  693.00  3.3001E-002  
  693.50  3.2652E-002  
  694.00  3.2449E-002  
  694.50  3.2140E-002  
  695.00  3.1642E-002  
  695.50  3.1153E-002  
  696.00  3.0643E-002  
  696.50  3.0195E-002  
  697.00  2.9784E-002  
  697.50  2.9487E-002  
  698.00  2.9124E-002  
  698.50  2.8803E-002  
  699.00  2.8446E-002  
  699.50  2.8022E-002  
  700.00  2.7476E-002  
  700.50  2.6983E-002  
  701.00  2.6609E-002  
  701.50  2.6302E-002  
  702.00  2.5921E-002  
  702.50  2.5548E-002  
  703.00  2.5251E-002  
  703.50  2.4977E-002  
  704.00  2.4736E-002  
  704.50  2.4384E-002  
  705.00  2.4137E-002  
  705.50  2.3852E-002  
  706.00  2.3492E-002  
  706.50  2.3119E-002  
  707.00  2.2850E-002  
  707.50  2.2658E-002  
  708.00  2.2284E-002  
  708.50  2.1906E-002  
  709.00  2.1756E-002  
  709.50  2.1594E-002  
  710.00  2.1229E-002  
  710.50  2.0868E-002  
  711.00  2.0602E-002  
  711.50  2.0344E-002  
  712.00  1.9997E-002  
  712.50  1.9783E-002  
  713.00  1.9598E-002  
  713.50  1.9402E-002  
  714.00  1.9083E-002  
  714.50  1.8786E-002  
  715.00  1.8468E-002  
  715.50  1.8194E-002  
  716.00  1.7835E-002  
  716.50  1.7405E-002  
  717.00  1.7077E-002  
  717.50  1.6861E-002  
  718.00  1.6796E-002  
  718.50  1.6692E-002  
  719.00  1.6498E-002  
  719.50  1.6290E-002  
  720.00  1.6081E-002  
  720.50  1.5854E-002  
  721.00  1.5608E-002  
  721.50  1.5446E-002  
  722.00  1.5261E-002  
  722.50  1.4994E-002  
  723.00  1.4729E-002  
  723.50  1.4590E-002  
  724.00  1.4364E-002  
  724.50  1.4052E-002  
  725.00  1.3733E-002  
  725.50  1.3661E-002  
  726.00  1.3560E-002  
  726.50  1.3467E-002  
  727.00  1.3241E-002  
  727.50  1.3027E-002  
  728.00  1.2814E-002  
  728.50  1.2648E-002  
  729.00  1.2568E-002  
  729.50  1.2406E-002  
  730.00  1.2301E-002  
  730.50  1.2116E-002  
  731.00  1.2025E-002  
  731.50  1.1904E-002  
  732.00  1.1757E-002  
  732.50  1.1502E-002  
  733.00  1.1246E-002  
  733.50  1.1088E-002  
  734.00  1.0998E-002  
  734.50  1.0932E-002  
  735.00  1.0764E-002  
  735.50  1.0619E-002  
  736.00  1.0395E-002  
  736.50  1.0233E-002  
  737.00  1.0089E-002  
  737.50  1.0016E-002  
  738.00  9.8498E-003  
  738.50  9.7340E-003  
  739.00  9.5826E-003  
  739.50  9.6690E-003  
  740.00  9.5905E-003  
  740.50  9.4856E-003  
  741.00  9.2832E-003  
  741.50  9.2441E-003  
  742.00  9.1797E-003  
  742.50  9.0376E-003  
  743.00  8.9717E-003  
  743.50  8.8346E-003  
  744.00  8.5695E-003  
  744.50  8.3324E-003  
  745.00  8.1516E-003  
  745.50  8.0610E-003  
  746.00  7.8005E-003  
  746.50  7.6358E-003  
  747.00  7.5556E-003  
  747.50  7.7152E-003  
  748.00  7.6952E-003  
  748.50  7.6008E-003  
  749.00  7.2931E-003  
  749.50  7.1987E-003  
  750.00  7.1249E-003  
  750.50  7.1472E-003  
  751.00  7.1149E-003  
  751.50  6.9997E-003  
  752.00  6.8729E-003  
  752.50  6.8355E-003  
  753.00  6.8457E-003  
  753.50  6.8182E-003  
  754.00  6.6555E-003  
  754.50  6.5840E-003  
  755.00  6.4689E-003  
  755.50  6.3451E-003  
  756.00  6.2236E-003  
  756.50  6.0884E-003  
  757.00  5.9486E-003  
  757.50  5.8385E-003  
  758.00  5.8212E-003  
  758.50  5.7446E-003  
  759.00  5.6844E-003  
  759.50  5.5871E-003  
  760.00  5.5624E-003  
  760.50  5.4797E-003  
  761.00  5.4094E-003  
  761.50  5.3668E-003  
  762.00  5.3076E-003  
  762.50  5.4211E-003  
  763.00  5.5477E-003  
  763.50  5.5121E-003  
  764.00  5.3256E-003  
  764.50  5.0420E-003  
  765.00  4.7313E-003  
  765.50  4.5115E-003  
  766.00  4.5002E-003  
  766.50  4.6117E-003  
  767.00  4.6278E-003  
  767.50  4.6316E-003  
  768.00  4.6657E-003  
  768.50  4.6063E-003  
  769.00  4.4558E-003  
  769.50  4.2993E-003  
  770.00  4.2299E-003  
  770.50  4.2169E-003  
  771.00  4.2167E-003  
  771.50  4.2626E-003  
  772.00  4.2592E-003  
  772.50  4.2387E-003  
  773.00  4.1041E-003  
  773.50  4.0040E-003  
  774.00  3.9607E-003  
  774.50  4.0162E-003  
  775.00  4.0599E-003  
  775.50  4.0266E-003  
  776.00  3.8252E-003  
  776.50  3.6751E-003  
  777.00  3.5660E-003  
  777.50  3.5834E-003  
  778.00  3.4616E-003  
  778.50  3.3235E-003  
  779.00  3.3967E-003  
  779.50  3.2551E-003  
  780.00  3.1792E-003  
  780.50  3.2558E-003  
  781.00  3.4636E-003  
  781.50  3.4884E-003  
  782.00  3.4458E-003  
  782.50  3.3345E-003  
  783.00  3.3773E-003  
  783.50  3.2604E-003  
  784.00  3.1937E-003  
  784.50  3.0329E-003  
  785.00  3.0833E-003  
  785.50  3.1253E-003  
  786.00  2.9262E-003  
  786.50  2.6219E-003  
  787.00  2.6158E-003  
  787.50  2.9400E-003  
  788.00  3.0450E-003  
  788.50  2.9103E-003  
  789.00  2.6921E-003  
  789.50  2.5843E-003  
  790.00  2.5317E-003  
  790.50  2.5185E-003  
  791.00  2.5739E-003  
  791.50  2.6307E-003  
  792.00  2.6707E-003  
  792.50  2.4956E-003  
  793.00  2.3661E-003  
  793.50  2.3897E-003  
  794.00  2.4183E-003  
  794.50  2.2622E-003  
  795.00  2.1349E-003  
  795.50  2.2571E-003  
  796.00  2.4968E-003  
  796.50  2.5540E-003  
  797.00  2.3436E-003  
  797.50  2.2565E-003  
  798.00  2.1924E-003  
  798.50  2.1819E-003  
  799.00  2.2566E-003  
  799.50  2.3272E-003  
  800.00  2.3345E-003  
  800.50  2.0911E-003  
  801.00  1.7869E-003  
  801.50  1.6869E-003  
  802.00  1.9182E-003  
  802.50  2.1775E-003  
  803.00  2.0471E-003  
  803.50  1.9282E-003  
  804.00  1.8286E-003  
  804.50  1.9119E-003  
  805.00  1.7808E-003  
  805.50  1.5172E-003  
  806.00  1.3038E-003  
  806.50  1.3500E-003  
  807.00  1.8983E-003  
  807.50  2.2918E-003  
  808.00  2.2592E-003  
  808.50  2.0103E-003  
  809.00  1.6563E-003  
  809.50  1.3933E-003  
  810.00  1.4090E-003  
  810.50  1.5473E-003  
  811.00  1.6142E-003  
  811.50  1.8129E-003  
  812.00  1.8239E-003  
  812.50  1.7819E-003  
  813.00  1.6865E-003  
  813.50  1.6249E-003  
  814.00  1.6177E-003  
  814.50  1.7326E-003  
  815.00  1.8276E-003  
  815.50  1.7481E-003  
  816.00  1.7705E-003  
  816.50  1.4912E-003  
  817.00  1.2674E-003  
  817.50  1.1908E-003  
  818.00  1.3537E-003  
  818.50  1.4920E-003  
  819.00  1.1848E-003  
  819.50  8.4860E-004  
  820.00  7.5944E-004  
  820.50  9.4446E-004  
  821.00  1.1140E-003  
  821.50  1.3382E-003  
  822.00  1.3752E-003  
  822.50  1.6339E-003  
  823.00  1.5555E-003  
  823.50  1.2875E-003  
  824.00  1.4437E-003  
  824.50  1.7059E-003  
  825.00  1.5233E-003  
  825.50  1.2063E-003  
  826.00  1.0554E-003  
  826.50  8.2141E-004  
  827.00  8.3490E-004  
  827.50  1.1139E-003  
  828.00  1.3212E-003  
  828.50  1.0486E-003  
  829.00  9.4765E-004  
  829.50  1.0231E-003  
  830.00  1.0156E-003  
  830.50  1.0296E-003  
  831.00  7.7077E-004  
  831.50  7.0284E-004  
  832.00  1.1282E-003  
  832.50  1.1706E-003  
  833.00  7.6997E-004  
  833.50  4.8537E-004  
  834.00  5.8271E-004  
  834.50  6.5427E-004  
  835.00  7.5006E-004  
  835.50  1.1488E-003  
  836.00  1.4278E-003  
  836.50  1.5215E-003  
  837.00  1.8016E-003  
  837.50  1.7212E-003  
  838.00  1.3430E-003  
  838.50  6.8678E-004  
  839.00  5.7172E-004  
  839.50  6.5442E-004  
  840.00  8.7933E-004  
  840.50  5.6565E-004  
  841.00  3.3575E-004  
  841.50  5.0659E-004  
  842.00  6.8377E-004  
  842.50  6.8478E-004  
  843.00  4.0445E-004  
  843.50  4.9887E-004  
  844.00  7.2714E-004  
  844.50  4.3502E-004  
  845.00  4.0262E-004  
  845.50  5.4721E-004  
  846.00  7.4078E-004  
  846.50  1.2378E-003  
  847.00  1.4881E-003  
  847.50  1.5707E-003  
  848.00  1.2207E-003  
  848.50  8.6533E-004  
  849.00  5.9469E-004  
  849.50  8.7486E-004  
  850.00  1.2501E-003  
  850.50  1.0871E-003  
  851.00  6.5816E-004  
  851.50  5.9047E-004  
  852.00  9.1776E-004  
  852.50  8.1022E-004  
  853.00  4.9409E-004  
  853.50  1.6417E-004  
  854.00  3.5069E-004  
  854.50  7.4346E-004  
  855.00  1.0960E-003  
  855.50  1.3283E-003  
  856.00  1.1849E-003  
  856.50  6.6138E-004  
  857.00  3.1484E-004  
  857.50  5.6553E-004  
  858.00  4.6945E-004  
  858.50  3.5157E-004  
  859.00  8.3997E-004  
  859.50  1.2005E-003  
  860.00  1.0765E-003  
  860.50  7.3316E-004  
  861.00  6.7789E-004  
  861.50  2.7943E-004  
  862.00  2.1048E-004  
  862.50  7.6254E-004  
  863.00  1.3118E-003  
  863.50  1.3580E-003  
  864.00  1.0351E-003  
  864.50  8.7008E-004  
  865.00  1.2765E-003  
  865.50  1.5133E-003  
  866.00  1.1026E-003  
  866.50  1.2433E-003  
  867.00  1.7037E-003  
  867.50  1.9596E-003  
  868.00  1.2722E-003  
  868.50  7.2597E-004  
  869.00  8.0345E-004  
  869.50  1.5034E-003  
  870.00  1.6886E-003  
  870.50  1.4915E-003  
  871.00  1.3678E-003  
  871.50  1.8522E-003  
  872.00  1.8400E-003  
  872.50  1.1764E-003  
  873.00  1.0103E-003  
  873.50  6.7005E-004  
  874.00  5.8194E-004  
  874.50  6.2046E-004  
  875.00  1.3604E-003  
  875.50  2.0022E-003  
  876.00  1.3206E-003  
  876.50  5.6838E-004  
  877.00  1.1922E-003  
  877.50  2.2315E-003  
  878.00  2.5052E-003  
  878.50  2.3571E-003  
  879.00  1.7467E-003  
  879.50  1.0718E-003  
  880.00  1.1392E-003  
  880.50  1.9680E-003  
  881.00  2.6897E-003  
  881.50  3.0108E-003  
  882.00  2.9617E-003  
  882.50  2.7429E-003  
  883.00  2.8989E-003  
  883.50  3.4045E-003  
  884.00  3.2819E-003  
  884.50  2.9323E-003  
  885.00  2.7008E-003  
  885.50  2.7334E-003  
  886.00  2.1203E-003  
  886.50  1.5584E-003  
  887.00  2.3017E-003  
  887.50  2.8355E-003  
  888.00  2.7635E-003  
  888.50  2.4571E-003  
  889.00  2.7066E-003  
  889.50  2.6190E-003  
  890.00  2.4281E-003  
  890.50  2.0271E-003  
  891.00  2.0693E-003  
  891.50  2.4048E-003  
  892.00  2.3091E-003  
  892.50  1.9217E-003  
  893.00  1.6233E-003  
  893.50  2.6029E-003  
  894.00  3.6718E-003  
  894.50  3.4849E-003  
  895.00  2.5372E-003  
  895.50  2.0975E-003  
  896.00  2.2838E-003  
  896.50  2.9507E-003  
  897.00  3.2487E-003  
  897.50  3.0277E-003  
  898.00  2.2899E-003  
  898.50  1.7188E-003  
  899.00  2.5611E-003  
  899.50  6.4011E-005  
