
# From lspdd.org
# 
# Name: DEL Dals SWIVLEDHP Domestique
# Indice spectral Valeur 
# MSI 0.25 
# SLI 0.41 
# IPI 0.64 
# Pourcentage de bleu 14.7 
# Caractéristique Valeur 
# CCT calculée (K) 2707 
# CCT du fabricant (K) 3000 
# Tension (V) 12 
# Puissance (W) 4.3 
# Efficacité lumineuse (Lum/W) 139.0 
#
# Image: '/app/system/img_2s/2708/medium_image2.JPG?1464613382'
# Image: '/app/system/img_1s/2708/medium_image1.JPG?1464613379'
# 

  273.00  0.0000E+000  
  273.50  0.0000E+000  
  274.00  0.0000E+000  
  274.50  0.0000E+000  
  275.00  0.0000E+000  
  275.50  0.0000E+000  
  276.00  0.0000E+000  
  276.50  0.0000E+000  
  277.00  0.0000E+000  
  277.50  0.0000E+000  
  278.00  0.0000E+000  
  278.50  0.0000E+000  
  279.00  0.0000E+000  
  279.50  0.0000E+000  
  280.00  0.0000E+000  
  280.50  0.0000E+000  
  281.00  0.0000E+000  
  281.50  0.0000E+000  
  282.00  0.0000E+000  
  282.50  0.0000E+000  
  283.00  0.0000E+000  
  283.50  0.0000E+000  
  284.00  0.0000E+000  
  284.50  0.0000E+000  
  285.00  0.0000E+000  
  285.50  0.0000E+000  
  286.00  0.0000E+000  
  286.50  0.0000E+000  
  287.00  0.0000E+000  
  287.50  0.0000E+000  
  288.00  0.0000E+000  
  288.50  0.0000E+000  
  289.00  0.0000E+000  
  289.50  0.0000E+000  
  290.00  0.0000E+000  
  290.50  0.0000E+000  
  291.00  0.0000E+000  
  291.50  0.0000E+000  
  292.00  0.0000E+000  
  292.50  0.0000E+000  
  293.00  0.0000E+000  
  293.50  0.0000E+000  
  294.00  0.0000E+000  
  294.50  0.0000E+000  
  295.00  0.0000E+000  
  295.50  0.0000E+000  
  296.00  0.0000E+000  
  296.50  0.0000E+000  
  297.00  0.0000E+000  
  297.50  0.0000E+000  
  298.00  0.0000E+000  
  298.50  0.0000E+000  
  299.00  0.0000E+000  
  299.50  0.0000E+000  
  300.00  3.2155E-005  
  300.50  9.4678E-005  
  301.00  1.0227E-004  
  301.50  7.6379E-005  
  302.00  2.2201E-005  
  302.50  0.0000E+000  
  303.00  4.8334E-006  
  303.50  4.7678E-005  
  304.00  1.2554E-004  
  304.50  1.7521E-004  
  305.00  1.4622E-004  
  305.50  1.2439E-004  
  306.00  8.2205E-005  
  306.50  4.2678E-005  
  307.00  7.1611E-005  
  307.50  7.1235E-005  
  308.00  8.4715E-005  
  308.50  1.1735E-004  
  309.00  1.6328E-004  
  309.50  1.9681E-004  
  310.00  2.0624E-004  
  310.50  2.3132E-004  
  311.00  1.6705E-004  
  311.50  1.3954E-004  
  312.00  7.0518E-005  
  312.50  0.0000E+000  
  313.00  0.0000E+000  
  313.50  0.0000E+000  
  314.00  6.4646E-005  
  314.50  4.5690E-005  
  315.00  4.7643E-005  
  315.50  5.1009E-005  
  316.00  5.0962E-005  
  316.50  7.5057E-005  
  317.00  1.1192E-004  
  317.50  1.3076E-004  
  318.00  1.3734E-004  
  318.50  2.1105E-004  
  319.00  2.5778E-004  
  319.50  2.7229E-004  
  320.00  2.2608E-004  
  320.50  1.8855E-004  
  321.00  1.7918E-004  
  321.50  2.5456E-004  
  322.00  3.6537E-004  
  322.50  3.6763E-004  
  323.00  3.0846E-004  
  323.50  2.2672E-004  
  324.00  1.2832E-004  
  324.50  9.5723E-005  
  325.00  1.4628E-004  
  325.50  2.1262E-004  
  326.00  2.7215E-004  
  326.50  2.6223E-004  
  327.00  2.3243E-004  
  327.50  2.5144E-004  
  328.00  3.0249E-004  
  328.50  3.9858E-004  
  329.00  4.1396E-004  
  329.50  3.5683E-004  
  330.00  2.8646E-004  
  330.50  2.4816E-004  
  331.00  1.7409E-004  
  331.50  1.7745E-004  
  332.00  1.8461E-004  
  332.50  1.4660E-004  
  333.00  2.1205E-004  
  333.50  1.5779E-004  
  334.00  1.3545E-004  
  334.50  2.4844E-004  
  335.00  2.9349E-004  
  335.50  3.3973E-004  
  336.00  3.6986E-004  
  336.50  3.4656E-004  
  337.00  3.6106E-004  
  337.50  3.7175E-004  
  338.00  3.3159E-004  
  338.50  2.8607E-004  
  339.00  2.2210E-004  
  339.50  2.2224E-004  
  340.00  1.9165E-004  
  340.50  1.9359E-004  
  341.00  2.5801E-004  
  341.50  3.3686E-004  
  342.00  3.6808E-004  
  342.50  2.9400E-004  
  343.00  1.5634E-004  
  343.50  8.0899E-005  
  344.00  1.2565E-004  
  344.50  2.3126E-004  
  345.00  3.4294E-004  
  345.50  3.6974E-004  
  346.00  3.6910E-004  
  346.50  3.5636E-004  
  347.00  3.1924E-004  
  347.50  2.4286E-004  
  348.00  1.6871E-004  
  348.50  1.2957E-004  
  349.00  1.6524E-004  
  349.50  2.3288E-004  
  350.00  3.0798E-004  
  350.50  3.1872E-004  
  351.00  3.1545E-004  
  351.50  3.0480E-004  
  352.00  3.2183E-004  
  352.50  3.1891E-004  
  353.00  2.4520E-004  
  353.50  1.9326E-004  
  354.00  1.3197E-004  
  354.50  1.3109E-004  
  355.00  1.3965E-004  
  355.50  1.3135E-004  
  356.00  1.3616E-004  
  356.50  1.5603E-004  
  357.00  1.8583E-004  
  357.50  2.2661E-004  
  358.00  2.1530E-004  
  358.50  2.1096E-004  
  359.00  2.1555E-004  
  359.50  1.8687E-004  
  360.00  2.2920E-004  
  360.50  2.4536E-004  
  361.00  2.4363E-004  
  361.50  2.8470E-004  
  362.00  3.2665E-004  
  362.50  3.7386E-004  
  363.00  4.3400E-004  
  363.50  4.5341E-004  
  364.00  4.2394E-004  
  364.50  3.6708E-004  
  365.00  3.0386E-004  
  365.50  2.2810E-004  
  366.00  1.7133E-004  
  366.50  1.4865E-004  
  367.00  1.0161E-004  
  367.50  9.5937E-005  
  368.00  7.3765E-005  
  368.50  9.8530E-005  
  369.00  1.5882E-004  
  369.50  2.0844E-004  
  370.00  2.0266E-004  
  370.50  2.3055E-004  
  371.00  2.4290E-004  
  371.50  2.7018E-004  
  372.00  3.3130E-004  
  372.50  3.1466E-004  
  373.00  3.0130E-004  
  373.50  2.5579E-004  
  374.00  1.8534E-004  
  374.50  2.0936E-004  
  375.00  2.0347E-004  
  375.50  2.0408E-004  
  376.00  1.9159E-004  
  376.50  1.8357E-004  
  377.00  2.2673E-004  
  377.50  2.7867E-004  
  378.00  3.7652E-004  
  378.50  4.1597E-004  
  379.00  5.1395E-004  
  379.50  6.3031E-004  
  380.00  6.2786E-004  
  380.50  6.0148E-004  
  381.00  5.0136E-004  
  381.50  3.3985E-004  
  382.00  2.7948E-004  
  382.50  2.4028E-004  
  383.00  3.0568E-004  
  383.50  3.3839E-004  
  384.00  3.6530E-004  
  384.50  3.3858E-004  
  385.00  3.1420E-004  
  385.50  3.8629E-004  
  386.00  4.0869E-004  
  386.50  4.3842E-004  
  387.00  3.8250E-004  
  387.50  2.9404E-004  
  388.00  3.3718E-004  
  388.50  3.7325E-004  
  389.00  3.9898E-004  
  389.50  5.0631E-004  
  390.00  5.1079E-004  
  390.50  5.1985E-004  
  391.00  5.2147E-004  
  391.50  4.4882E-004  
  392.00  4.4940E-004  
  392.50  5.4073E-004  
  393.00  5.8429E-004  
  393.50  6.3470E-004  
  394.00  6.4349E-004  
  394.50  6.1506E-004  
  395.00  5.6498E-004  
  395.50  5.4382E-004  
  396.00  5.3371E-004  
  396.50  5.7747E-004  
  397.00  6.7023E-004  
  397.50  6.6323E-004  
  398.00  6.9402E-004  
  398.50  6.7804E-004  
  399.00  6.5020E-004  
  399.50  6.2138E-004  
  400.00  6.5401E-004  
  400.50  7.2783E-004  
  401.00  7.8630E-004  
  401.50  8.3356E-004  
  402.00  8.2404E-004  
  402.50  8.4086E-004  
  403.00  8.8651E-004  
  403.50  9.3262E-004  
  404.00  1.0058E-003  
  404.50  1.0552E-003  
  405.00  1.1115E-003  
  405.50  1.1572E-003  
  406.00  1.1822E-003  
  406.50  1.2147E-003  
  407.00  1.2622E-003  
  407.50  1.3184E-003  
  408.00  1.4604E-003  
  408.50  1.6279E-003  
  409.00  1.7770E-003  
  409.50  1.8743E-003  
  410.00  1.9362E-003  
  410.50  1.9405E-003  
  411.00  1.9848E-003  
  411.50  2.1282E-003  
  412.00  2.3588E-003  
  412.50  2.6427E-003  
  413.00  2.9242E-003  
  413.50  3.1620E-003  
  414.00  3.4384E-003  
  414.50  3.6797E-003  
  415.00  3.9967E-003  
  415.50  4.3058E-003  
  416.00  4.7454E-003  
  416.50  5.1942E-003  
  417.00  5.6434E-003  
  417.50  6.0672E-003  
  418.00  6.4742E-003  
  418.50  6.8714E-003  
  419.00  7.4057E-003  
  419.50  8.0219E-003  
  420.00  8.6659E-003  
  420.50  9.3533E-003  
  421.00  9.9824E-003  
  421.50  1.0663E-002  
  422.00  1.1391E-002  
  422.50  1.2109E-002  
  423.00  1.2893E-002  
  423.50  1.3825E-002  
  424.00  1.4776E-002  
  424.50  1.5851E-002  
  425.00  1.6836E-002  
  425.50  1.7829E-002  
  426.00  1.8813E-002  
  426.50  1.9834E-002  
  427.00  2.0833E-002  
  427.50  2.1922E-002  
  428.00  2.3093E-002  
  428.50  2.4342E-002  
  429.00  2.5624E-002  
  429.50  2.6924E-002  
  430.00  2.8162E-002  
  430.50  2.9390E-002  
  431.00  3.0722E-002  
  431.50  3.2138E-002  
  432.00  3.3611E-002  
  432.50  3.5181E-002  
  433.00  3.6797E-002  
  433.50  3.8669E-002  
  434.00  4.0595E-002  
  434.50  4.2452E-002  
  435.00  4.4122E-002  
  435.50  4.5760E-002  
  436.00  4.7619E-002  
  436.50  4.9669E-002  
  437.00  5.1641E-002  
  437.50  5.3687E-002  
  438.00  5.5670E-002  
  438.50  5.7743E-002  
  439.00  5.9828E-002  
  439.50  6.1732E-002  
  440.00  6.3518E-002  
  440.50  6.5257E-002  
  441.00  6.6820E-002  
  441.50  6.8126E-002  
  442.00  6.9461E-002  
  442.50  7.0599E-002  
  443.00  7.1578E-002  
  443.50  7.2185E-002  
  444.00  7.2265E-002  
  444.50  7.1997E-002  
  445.00  7.1523E-002  
  445.50  7.1086E-002  
  446.00  7.0264E-002  
  446.50  6.9126E-002  
  447.00  6.7658E-002  
  447.50  6.6023E-002  
  448.00  6.4197E-002  
  448.50  6.2128E-002  
  449.00  5.9932E-002  
  449.50  5.7672E-002  
  450.00  5.5110E-002  
  450.50  5.2641E-002  
  451.00  5.0093E-002  
  451.50  4.7759E-002  
  452.00  4.5690E-002  
  452.50  4.3687E-002  
  453.00  4.1813E-002  
  453.50  3.9843E-002  
  454.00  3.7844E-002  
  454.50  3.5908E-002  
  455.00  3.4163E-002  
  455.50  3.2654E-002  
  456.00  3.1275E-002  
  456.50  2.9962E-002  
  457.00  2.8757E-002  
  457.50  2.7491E-002  
  458.00  2.6311E-002  
  458.50  2.5233E-002  
  459.00  2.4264E-002  
  459.50  2.3356E-002  
  460.00  2.2488E-002  
  460.50  2.1631E-002  
  461.00  2.0837E-002  
  461.50  2.0171E-002  
  462.00  1.9498E-002  
  462.50  1.8859E-002  
  463.00  1.8235E-002  
  463.50  1.7584E-002  
  464.00  1.6998E-002  
  464.50  1.6288E-002  
  465.00  1.5610E-002  
  465.50  1.4981E-002  
  466.00  1.4425E-002  
  466.50  1.3978E-002  
  467.00  1.3501E-002  
  467.50  1.3024E-002  
  468.00  1.2584E-002  
  468.50  1.2157E-002  
  469.00  1.1776E-002  
  469.50  1.1431E-002  
  470.00  1.1130E-002  
  470.50  1.0836E-002  
  471.00  1.0530E-002  
  471.50  1.0185E-002  
  472.00  9.9053E-003  
  472.50  9.7010E-003  
  473.00  9.4623E-003  
  473.50  9.2758E-003  
  474.00  9.0810E-003  
  474.50  8.9499E-003  
  475.00  8.8501E-003  
  475.50  8.6785E-003  
  476.00  8.4713E-003  
  476.50  8.2948E-003  
  477.00  8.1480E-003  
  477.50  8.0401E-003  
  478.00  7.9768E-003  
  478.50  7.9084E-003  
  479.00  7.8618E-003  
  479.50  7.8162E-003  
  480.00  7.7822E-003  
  480.50  7.7565E-003  
  481.00  7.7071E-003  
  481.50  7.6979E-003  
  482.00  7.6505E-003  
  482.50  7.6495E-003  
  483.00  7.6384E-003  
  483.50  7.6570E-003  
  484.00  7.6983E-003  
  484.50  7.7333E-003  
  485.00  7.7786E-003  
  485.50  7.8261E-003  
  486.00  7.9257E-003  
  486.50  8.0716E-003  
  487.00  8.2317E-003  
  487.50  8.3808E-003  
  488.00  8.5417E-003  
  488.50  8.6860E-003  
  489.00  8.8884E-003  
  489.50  9.1107E-003  
  490.00  9.3672E-003  
  490.50  9.6187E-003  
  491.00  9.8911E-003  
  491.50  1.0196E-002  
  492.00  1.0519E-002  
  492.50  1.0848E-002  
  493.00  1.1203E-002  
  493.50  1.1642E-002  
  494.00  1.2072E-002  
  494.50  1.2514E-002  
  495.00  1.2956E-002  
  495.50  1.3439E-002  
  496.00  1.3985E-002  
  496.50  1.4500E-002  
  497.00  1.5022E-002  
  497.50  1.5640E-002  
  498.00  1.6324E-002  
  498.50  1.7032E-002  
  499.00  1.7738E-002  
  499.50  1.8447E-002  
  500.00  1.9194E-002  
  500.50  1.9943E-002  
  501.00  2.0713E-002  
  501.50  2.1530E-002  
  502.00  2.2356E-002  
  502.50  2.3194E-002  
  503.00  2.4066E-002  
  503.50  2.4962E-002  
  504.00  2.5932E-002  
  504.50  2.6848E-002  
  505.00  2.7803E-002  
  505.50  2.8759E-002  
  506.00  2.9776E-002  
  506.50  3.0823E-002  
  507.00  3.1872E-002  
  507.50  3.2932E-002  
  508.00  3.3955E-002  
  508.50  3.4955E-002  
  509.00  3.5971E-002  
  509.50  3.7012E-002  
  510.00  3.8154E-002  
  510.50  3.9305E-002  
  511.00  4.0560E-002  
  511.50  4.1740E-002  
  512.00  4.2859E-002  
  512.50  4.3920E-002  
  513.00  4.5037E-002  
  513.50  4.6161E-002  
  514.00  4.7291E-002  
  514.50  4.8421E-002  
  515.00  4.9598E-002  
  515.50  5.0876E-002  
  516.00  5.2122E-002  
  516.50  5.3279E-002  
  517.00  5.4408E-002  
  517.50  5.5465E-002  
  518.00  5.6619E-002  
  518.50  5.7815E-002  
  519.00  5.8968E-002  
  519.50  6.0091E-002  
  520.00  6.1259E-002  
  520.50  6.2385E-002  
  521.00  6.3471E-002  
  521.50  6.4493E-002  
  522.00  6.5441E-002  
  522.50  6.6512E-002  
  523.00  6.7646E-002  
  523.50  6.8686E-002  
  524.00  6.9813E-002  
  524.50  7.0845E-002  
  525.00  7.1980E-002  
  525.50  7.3037E-002  
  526.00  7.4057E-002  
  526.50  7.5018E-002  
  527.00  7.5992E-002  
  527.50  7.6953E-002  
  528.00  7.7971E-002  
  528.50  7.9040E-002  
  529.00  8.0149E-002  
  529.50  8.1168E-002  
  530.00  8.2236E-002  
  530.50  8.3206E-002  
  531.00  8.4128E-002  
  531.50  8.5109E-002  
  532.00  8.6117E-002  
  532.50  8.7145E-002  
  533.00  8.8060E-002  
  533.50  8.8925E-002  
  534.00  8.9880E-002  
  534.50  9.1008E-002  
  535.00  9.2077E-002  
  535.50  9.3137E-002  
  536.00  9.4067E-002  
  536.50  9.4963E-002  
  537.00  9.5750E-002  
  537.50  9.6474E-002  
  538.00  9.7381E-002  
  538.50  9.8216E-002  
  539.00  9.9131E-002  
  539.50  9.9896E-002  
  540.00  1.0091E-001  
  540.50  1.0196E-001  
  541.00  1.0290E-001  
  541.50  1.0369E-001  
  542.00  1.0440E-001  
  542.50  1.0528E-001  
  543.00  1.0630E-001  
  543.50  1.0718E-001  
  544.00  1.0796E-001  
  544.50  1.0861E-001  
  545.00  1.0930E-001  
  545.50  1.1019E-001  
  546.00  1.1107E-001  
  546.50  1.1197E-001  
  547.00  1.1282E-001  
  547.50  1.1365E-001  
  548.00  1.1436E-001  
  548.50  1.1509E-001  
  549.00  1.1584E-001  
  549.50  1.1665E-001  
  550.00  1.1747E-001  
  550.50  1.1845E-001  
  551.00  1.1931E-001  
  551.50  1.2019E-001  
  552.00  1.2078E-001  
  552.50  1.2143E-001  
  553.00  1.2212E-001  
  553.50  1.2283E-001  
  554.00  1.2362E-001  
  554.50  1.2441E-001  
  555.00  1.2514E-001  
  555.50  1.2595E-001  
  556.00  1.2670E-001  
  556.50  1.2748E-001  
  557.00  1.2818E-001  
  557.50  1.2888E-001  
  558.00  1.2965E-001  
  558.50  1.3038E-001  
  559.00  1.3101E-001  
  559.50  1.3177E-001  
  560.00  1.3258E-001  
  560.50  1.3337E-001  
  561.00  1.3416E-001  
  561.50  1.3494E-001  
  562.00  1.3559E-001  
  562.50  1.3616E-001  
  563.00  1.3666E-001  
  563.50  1.3728E-001  
  564.00  1.3810E-001  
  564.50  1.3884E-001  
  565.00  1.3960E-001  
  565.50  1.4029E-001  
  566.00  1.4095E-001  
  566.50  1.4159E-001  
  567.00  1.4219E-001  
  567.50  1.4270E-001  
  568.00  1.4327E-001  
  568.50  1.4392E-001  
  569.00  1.4465E-001  
  569.50  1.4547E-001  
  570.00  1.4612E-001  
  570.50  1.4684E-001  
  571.00  1.4746E-001  
  571.50  1.4805E-001  
  572.00  1.4846E-001  
  572.50  1.4886E-001  
  573.00  1.4945E-001  
  573.50  1.5014E-001  
  574.00  1.5091E-001  
  574.50  1.5152E-001  
  575.00  1.5207E-001  
  575.50  1.5253E-001  
  576.00  1.5307E-001  
  576.50  1.5374E-001  
  577.00  1.5455E-001  
  577.50  1.5527E-001  
  578.00  1.5577E-001  
  578.50  1.5615E-001  
  579.00  1.5654E-001  
  579.50  1.5704E-001  
  580.00  1.5763E-001  
  580.50  1.5818E-001  
  581.00  1.5873E-001  
  581.50  1.5933E-001  
  582.00  1.5985E-001  
  582.50  1.6026E-001  
  583.00  1.6062E-001  
  583.50  1.6104E-001  
  584.00  1.6154E-001  
  584.50  1.6209E-001  
  585.00  1.6255E-001  
  585.50  1.6299E-001  
  586.00  1.6329E-001  
  586.50  1.6360E-001  
  587.00  1.6398E-001  
  587.50  1.6455E-001  
  588.00  1.6509E-001  
  588.50  1.6553E-001  
  589.00  1.6585E-001  
  589.50  1.6619E-001  
  590.00  1.6662E-001  
  590.50  1.6703E-001  
  591.00  1.6748E-001  
  591.50  1.6805E-001  
  592.00  1.6862E-001  
  592.50  1.6908E-001  
  593.00  1.6937E-001  
  593.50  1.6940E-001  
  594.00  1.6962E-001  
  594.50  1.6990E-001  
  595.00  1.7016E-001  
  595.50  1.7027E-001  
  596.00  1.7038E-001  
  596.50  1.7065E-001  
  597.00  1.7094E-001  
  597.50  1.7107E-001  
  598.00  1.7116E-001  
  598.50  1.7127E-001  
  599.00  1.7140E-001  
  599.50  1.7136E-001  
  600.00  1.7137E-001  
  600.50  1.7141E-001  
  601.00  1.7151E-001  
  601.50  1.7160E-001  
  602.00  1.7178E-001  
  602.50  1.7189E-001  
  603.00  1.7192E-001  
  603.50  1.7177E-001  
  604.00  1.7182E-001  
  604.50  1.7185E-001  
  605.00  1.7182E-001  
  605.50  1.7156E-001  
  606.00  1.7119E-001  
  606.50  1.7098E-001  
  607.00  1.7091E-001  
  607.50  1.7094E-001  
  608.00  1.7087E-001  
  608.50  1.7065E-001  
  609.00  1.7036E-001  
  609.50  1.7009E-001  
  610.00  1.6991E-001  
  610.50  1.6957E-001  
  611.00  1.6922E-001  
  611.50  1.6905E-001  
  612.00  1.6918E-001  
  612.50  1.6911E-001  
  613.00  1.6872E-001  
  613.50  1.6807E-001  
  614.00  1.6762E-001  
  614.50  1.6733E-001  
  615.00  1.6702E-001  
  615.50  1.6674E-001  
  616.00  1.6633E-001  
  616.50  1.6576E-001  
  617.00  1.6496E-001  
  617.50  1.6423E-001  
  618.00  1.6364E-001  
  618.50  1.6327E-001  
  619.00  1.6274E-001  
  619.50  1.6222E-001  
  620.00  1.6160E-001  
  620.50  1.6104E-001  
  621.00  1.6058E-001  
  621.50  1.6007E-001  
  622.00  1.5968E-001  
  622.50  1.5897E-001  
  623.00  1.5825E-001  
  623.50  1.5771E-001  
  624.00  1.5715E-001  
  624.50  1.5655E-001  
  625.00  1.5584E-001  
  625.50  1.5518E-001  
  626.00  1.5444E-001  
  626.50  1.5365E-001  
  627.00  1.5290E-001  
  627.50  1.5215E-001  
  628.00  1.5132E-001  
  628.50  1.5053E-001  
  629.00  1.4986E-001  
  629.50  1.4930E-001  
  630.00  1.4874E-001  
  630.50  1.4812E-001  
  631.00  1.4732E-001  
  631.50  1.4655E-001  
  632.00  1.4596E-001  
  632.50  1.4528E-001  
  633.00  1.4450E-001  
  633.50  1.4350E-001  
  634.00  1.4262E-001  
  634.50  1.4185E-001  
  635.00  1.4099E-001  
  635.50  1.3994E-001  
  636.00  1.3895E-001  
  636.50  1.3812E-001  
  637.00  1.3743E-001  
  637.50  1.3664E-001  
  638.00  1.3563E-001  
  638.50  1.3466E-001  
  639.00  1.3373E-001  
  639.50  1.3292E-001  
  640.00  1.3204E-001  
  640.50  1.3106E-001  
  641.00  1.3002E-001  
  641.50  1.2889E-001  
  642.00  1.2789E-001  
  642.50  1.2703E-001  
  643.00  1.2624E-001  
  643.50  1.2541E-001  
  644.00  1.2471E-001  
  644.50  1.2385E-001  
  645.00  1.2269E-001  
  645.50  1.2129E-001  
  646.00  1.2028E-001  
  646.50  1.1966E-001  
  647.00  1.1892E-001  
  647.50  1.1789E-001  
  648.00  1.1654E-001  
  648.50  1.1555E-001  
  649.00  1.1474E-001  
  649.50  1.1399E-001  
  650.00  1.1283E-001  
  650.50  1.1161E-001  
  651.00  1.1064E-001  
  651.50  1.0978E-001  
  652.00  1.0879E-001  
  652.50  1.0759E-001  
  653.00  1.0644E-001  
  653.50  1.0545E-001  
  654.00  1.0442E-001  
  654.50  1.0343E-001  
  655.00  1.0248E-001  
  655.50  1.0155E-001  
  656.00  1.0058E-001  
  656.50  9.9561E-002  
  657.00  9.8607E-002  
  657.50  9.7561E-002  
  658.00  9.6498E-002  
  658.50  9.5528E-002  
  659.00  9.4625E-002  
  659.50  9.3690E-002  
  660.00  9.2747E-002  
  660.50  9.1785E-002  
  661.00  9.0812E-002  
  661.50  8.9824E-002  
  662.00  8.8830E-002  
  662.50  8.7930E-002  
  663.00  8.7076E-002  
  663.50  8.6214E-002  
  664.00  8.5190E-002  
  664.50  8.4025E-002  
  665.00  8.2991E-002  
  665.50  8.2096E-002  
  666.00  8.1272E-002  
  666.50  8.0329E-002  
  667.00  7.9404E-002  
  667.50  7.8487E-002  
  668.00  7.7717E-002  
  668.50  7.6896E-002  
  669.00  7.5971E-002  
  669.50  7.4928E-002  
  670.00  7.4077E-002  
  670.50  7.3286E-002  
  671.00  7.2536E-002  
  671.50  7.1735E-002  
  672.00  7.0960E-002  
  672.50  7.0036E-002  
  673.00  6.8996E-002  
  673.50  6.8045E-002  
  674.00  6.7214E-002  
  674.50  6.6512E-002  
  675.00  6.5798E-002  
  675.50  6.5123E-002  
  676.00  6.4280E-002  
  676.50  6.3334E-002  
  677.00  6.2494E-002  
  677.50  6.1661E-002  
  678.00  6.1021E-002  
  678.50  6.0228E-002  
  679.00  5.9474E-002  
  679.50  5.8527E-002  
  680.00  5.7779E-002  
  680.50  5.7140E-002  
  681.00  5.6523E-002  
  681.50  5.5774E-002  
  682.00  5.5107E-002  
  682.50  5.4437E-002  
  683.00  5.3663E-002  
  683.50  5.2753E-002  
  684.00  5.1985E-002  
  684.50  5.1313E-002  
  685.00  5.0599E-002  
  685.50  4.9904E-002  
  686.00  4.9382E-002  
  686.50  4.8830E-002  
  687.00  4.8225E-002  
  687.50  4.7676E-002  
  688.00  4.7221E-002  
  688.50  4.6699E-002  
  689.00  4.5898E-002  
  689.50  4.5083E-002  
  690.00  4.4377E-002  
  690.50  4.3968E-002  
  691.00  4.3368E-002  
  691.50  4.2641E-002  
  692.00  4.1837E-002  
  692.50  4.1291E-002  
  693.00  4.0895E-002  
  693.50  4.0525E-002  
  694.00  4.0160E-002  
  694.50  3.9601E-002  
  695.00  3.9042E-002  
  695.50  3.8443E-002  
  696.00  3.7905E-002  
  696.50  3.7425E-002  
  697.00  3.6968E-002  
  697.50  3.6628E-002  
  698.00  3.6121E-002  
  698.50  3.5555E-002  
  699.00  3.4933E-002  
  699.50  3.4317E-002  
  700.00  3.3829E-002  
  700.50  3.3358E-002  
  701.00  3.2953E-002  
  701.50  3.2586E-002  
  702.00  3.2118E-002  
  702.50  3.1616E-002  
  703.00  3.1130E-002  
  703.50  3.0815E-002  
  704.00  3.0611E-002  
  704.50  3.0218E-002  
  705.00  2.9743E-002  
  705.50  2.9144E-002  
  706.00  2.8741E-002  
  706.50  2.8382E-002  
  707.00  2.8048E-002  
  707.50  2.7638E-002  
  708.00  2.7279E-002  
  708.50  2.6914E-002  
  709.00  2.6586E-002  
  709.50  2.6158E-002  
  710.00  2.5758E-002  
  710.50  2.5318E-002  
  711.00  2.4934E-002  
  711.50  2.4526E-002  
  712.00  2.4142E-002  
  712.50  2.3865E-002  
  713.00  2.3542E-002  
  713.50  2.3234E-002  
  714.00  2.2977E-002  
  714.50  2.2748E-002  
  715.00  2.2378E-002  
  715.50  2.1889E-002  
  716.00  2.1448E-002  
  716.50  2.1202E-002  
  717.00  2.1172E-002  
  717.50  2.1037E-002  
  718.00  2.0787E-002  
  718.50  2.0385E-002  
  719.00  2.0072E-002  
  719.50  1.9870E-002  
  720.00  1.9647E-002  
  720.50  1.9259E-002  
  721.00  1.8891E-002  
  721.50  1.8573E-002  
  722.00  1.8374E-002  
  722.50  1.7960E-002  
  723.00  1.7623E-002  
  723.50  1.7412E-002  
  724.00  1.7283E-002  
  724.50  1.7022E-002  
  725.00  1.6664E-002  
  725.50  1.6427E-002  
  726.00  1.6317E-002  
  726.50  1.6180E-002  
  727.00  1.5893E-002  
  727.50  1.5648E-002  
  728.00  1.5445E-002  
  728.50  1.5268E-002  
  729.00  1.5035E-002  
  729.50  1.4787E-002  
  730.00  1.4596E-002  
  730.50  1.4407E-002  
  731.00  1.4112E-002  
  731.50  1.3914E-002  
  732.00  1.3745E-002  
  732.50  1.3602E-002  
  733.00  1.3378E-002  
  733.50  1.3183E-002  
  734.00  1.3013E-002  
  734.50  1.2893E-002  
  735.00  1.2746E-002  
  735.50  1.2596E-002  
  736.00  1.2278E-002  
  736.50  1.1983E-002  
  737.00  1.1745E-002  
  737.50  1.1609E-002  
  738.00  1.1516E-002  
  738.50  1.1484E-002  
  739.00  1.1339E-002  
  739.50  1.1300E-002  
  740.00  1.1082E-002  
  740.50  1.0916E-002  
  741.00  1.0680E-002  
  741.50  1.0579E-002  
  742.00  1.0393E-002  
  742.50  1.0198E-002  
  743.00  1.0084E-002  
  743.50  9.9659E-003  
  744.00  9.7837E-003  
  744.50  9.7023E-003  
  745.00  9.6331E-003  
  745.50  9.4949E-003  
  746.00  9.2976E-003  
  746.50  9.1577E-003  
  747.00  9.0999E-003  
  747.50  9.1321E-003  
  748.00  9.0640E-003  
  748.50  8.8410E-003  
  749.00  8.4803E-003  
  749.50  8.3656E-003  
  750.00  8.2985E-003  
  750.50  8.2545E-003  
  751.00  8.0033E-003  
  751.50  7.9337E-003  
  752.00  7.8368E-003  
  752.50  7.7684E-003  
  753.00  7.6233E-003  
  753.50  7.6769E-003  
  754.00  7.6531E-003  
  754.50  7.5847E-003  
  755.00  7.4904E-003  
  755.50  7.3502E-003  
  756.00  7.1362E-003  
  756.50  6.8164E-003  
  757.00  6.6808E-003  
  757.50  6.8199E-003  
  758.00  7.0125E-003  
  758.50  6.9308E-003  
  759.00  6.7969E-003  
  759.50  6.5690E-003  
  760.00  6.4341E-003  
  760.50  6.2265E-003  
  761.00  6.1359E-003  
  761.50  6.1862E-003  
  762.00  6.1507E-003  
  762.50  6.1202E-003  
  763.00  5.9456E-003  
  763.50  6.0748E-003  
  764.00  6.0240E-003  
  764.50  5.8436E-003  
  765.00  5.6171E-003  
  765.50  5.6089E-003  
  766.00  5.5840E-003  
  766.50  5.1992E-003  
  767.00  4.9885E-003  
  767.50  5.0822E-003  
  768.00  5.3108E-003  
  768.50  5.3358E-003  
  769.00  5.2161E-003  
  769.50  5.0936E-003  
  770.00  4.8976E-003  
  770.50  4.7915E-003  
  771.00  4.6159E-003  
  771.50  4.7487E-003  
  772.00  4.7503E-003  
  772.50  4.6061E-003  
  773.00  4.2671E-003  
  773.50  4.1168E-003  
  774.00  4.0618E-003  
  774.50  4.0121E-003  
  775.00  3.8642E-003  
  775.50  3.7951E-003  
  776.00  3.7845E-003  
  776.50  3.9189E-003  
  777.00  3.9892E-003  
  777.50  4.0087E-003  
  778.00  3.9108E-003  
  778.50  3.8041E-003  
  779.00  3.7478E-003  
  779.50  3.6754E-003  
  780.00  3.6270E-003  
  780.50  3.7472E-003  
  781.00  3.8492E-003  
  781.50  3.9867E-003  
  782.00  3.8224E-003  
  782.50  3.6230E-003  
  783.00  3.4907E-003  
  783.50  3.3796E-003  
  784.00  3.3038E-003  
  784.50  3.1450E-003  
  785.00  3.1054E-003  
  785.50  3.1233E-003  
  786.00  3.0341E-003  
  786.50  2.8779E-003  
  787.00  2.8019E-003  
  787.50  2.7895E-003  
  788.00  2.8440E-003  
  788.50  2.7323E-003  
  789.00  2.5224E-003  
  789.50  2.4770E-003  
  790.00  2.5652E-003  
  790.50  2.7429E-003  
  791.00  2.8989E-003  
  791.50  3.0364E-003  
  792.00  2.9140E-003  
  792.50  2.5653E-003  
  793.00  2.3118E-003  
  793.50  2.3791E-003  
  794.00  2.4475E-003  
  794.50  2.3538E-003  
  795.00  2.4042E-003  
  795.50  2.4414E-003  
  796.00  2.5317E-003  
  796.50  2.4199E-003  
  797.00  2.2057E-003  
  797.50  2.2246E-003  
  798.00  2.3398E-003  
  798.50  2.4597E-003  
  799.00  2.4231E-003  
  799.50  2.4637E-003  
  800.00  2.3737E-003  
  800.50  2.0943E-003  
  801.00  2.0509E-003  
  801.50  1.9672E-003  
  802.00  1.9272E-003  
  802.50  1.8547E-003  
  803.00  1.8549E-003  
  803.50  1.9588E-003  
  804.00  2.0567E-003  
  804.50  2.1748E-003  
  805.00  1.9127E-003  
  805.50  1.6750E-003  
  806.00  1.5941E-003  
  806.50  1.6248E-003  
  807.00  1.7645E-003  
  807.50  1.9495E-003  
  808.00  1.9561E-003  
  808.50  1.7764E-003  
  809.00  1.5285E-003  
  809.50  1.2721E-003  
  810.00  1.2950E-003  
  810.50  1.5021E-003  
  811.00  1.6706E-003  
  811.50  1.7361E-003  
  812.00  1.7652E-003  
  812.50  1.8935E-003  
  813.00  1.9468E-003  
  813.50  1.8421E-003  
  814.00  1.6162E-003  
  814.50  1.2925E-003  
  815.00  1.2708E-003  
  815.50  1.4069E-003  
  816.00  1.6094E-003  
  816.50  1.4203E-003  
  817.00  1.4291E-003  
  817.50  1.2746E-003  
  818.00  9.9727E-004  
  818.50  9.5394E-004  
  819.00  9.8644E-004  
  819.50  9.8346E-004  
  820.00  1.1897E-003  
  820.50  1.1453E-003  
  821.00  1.4325E-003  
  821.50  1.4446E-003  
  822.00  1.5097E-003  
  822.50  1.4169E-003  
  823.00  1.3172E-003  
  823.50  1.0139E-003  
  824.00  9.8235E-004  
  824.50  1.1790E-003  
  825.00  1.0720E-003  
  825.50  1.1517E-003  
  826.00  1.4044E-003  
  826.50  1.5121E-003  
  827.00  1.0586E-003  
  827.50  5.7893E-004  
  828.00  6.2598E-004  
  828.50  7.6589E-004  
  829.00  9.7714E-004  
  829.50  9.8166E-004  
  830.00  1.0009E-003  
  830.50  8.9248E-004  
  831.00  7.8872E-004  
  831.50  7.8212E-004  
  832.00  1.0573E-003  
  832.50  9.5107E-004  
  833.00  7.1544E-004  
  833.50  6.3296E-004  
  834.00  9.2511E-004  
  834.50  9.5712E-004  
  835.00  9.5533E-004  
  835.50  1.1694E-003  
  836.00  1.2583E-003  
  836.50  1.0194E-003  
  837.00  1.3057E-003  
  837.50  1.4536E-003  
  838.00  1.1442E-003  
  838.50  4.1562E-004  
  839.00  2.4972E-004  
  839.50  4.8384E-004  
  840.00  7.6812E-004  
  840.50  4.0988E-004  
  841.00  1.8185E-004  
  841.50  5.5619E-004  
  842.00  7.9139E-004  
  842.50  6.8216E-004  
  843.00  3.0351E-004  
  843.50  2.9263E-004  
  844.00  4.9905E-004  
  844.50  3.6472E-004  
  845.00  5.3578E-004  
  845.50  5.3103E-004  
  846.00  2.8479E-004  
  846.50  1.6028E-004  
  847.00  3.0699E-004  
  847.50  5.8728E-004  
  848.00  1.0249E-003  
  848.50  1.3698E-003  
  849.00  1.0020E-003  
  849.50  2.6691E-004  
  850.00  1.5996E-004  
  850.50  3.0877E-004  
  851.00  1.4848E-004  
  851.50  2.3690E-004  
  852.00  4.2921E-004  
  852.50  2.9271E-004  
  853.00  6.9448E-005  
  853.50  1.3338E-004  
  854.00  4.2198E-004  
  854.50  7.2030E-004  
  855.00  9.6926E-004  
  855.50  1.2801E-003  
  856.00  1.2597E-003  
  856.50  5.9059E-004  
  857.00  4.7411E-004  
  857.50  9.1618E-004  
  858.00  2.8557E-004  
  858.50  0.0000E+000  
  859.00  0.0000E+000  
  859.50  2.2568E-004  
  860.00  6.3213E-004  
  860.50  9.7260E-004  
  861.00  1.2297E-003  
  861.50  8.0270E-004  
  862.00  1.5794E-004  
  862.50  4.8520E-004  
  863.00  1.1422E-003  
  863.50  1.0317E-003  
  864.00  5.7320E-004  
  864.50  2.3945E-005  
  865.00  0.0000E+000  
  865.50  5.7258E-005  
  866.00  3.5964E-006  
  866.50  1.0506E-004  
  867.00  8.8864E-004  
  867.50  1.6153E-003  
  868.00  1.1478E-003  
  868.50  8.6687E-004  
  869.00  1.1799E-003  
  869.50  1.2884E-003  
  870.00  7.2524E-004  
  870.50  1.3937E-004  
  871.00  1.7811E-004  
  871.50  7.2549E-004  
  872.00  1.0670E-003  
  872.50  8.8226E-004  
  873.00  7.1819E-004  
  873.50  8.9846E-004  
  874.00  9.9013E-004  
  874.50  6.1545E-004  
  875.00  7.8020E-004  
  875.50  1.7125E-003  
  876.00  1.8328E-003  
  876.50  8.7719E-004  
  877.00  4.5703E-004  
  877.50  8.8852E-004  
  878.00  1.3591E-003  
  878.50  1.9496E-003  
  879.00  1.5445E-003  
  879.50  3.8451E-004  
  880.00  0.0000E+000  
  880.50  2.7054E-004  
  881.00  8.9428E-004  
  881.50  1.5549E-003  
  882.00  1.5827E-003  
  882.50  1.3661E-003  
  883.00  1.2254E-003  
  883.50  1.1148E-003  
  884.00  7.8227E-004  
  884.50  1.5008E-003  
  885.00  1.7599E-003  
  885.50  1.4093E-003  
  886.00  9.3144E-004  
  886.50  4.7513E-004  
  887.00  8.3229E-004  
  887.50  1.5194E-003  
  888.00  1.2815E-003  
  888.50  7.2829E-004  
  889.00  1.1767E-003  
  889.50  1.1114E-003  
  890.00  8.6345E-004  
  890.50  1.0280E-003  
  891.00  7.5614E-004  
  891.50  3.5602E-004  
  892.00  5.7640E-004  
  892.50  9.6772E-004  
  893.00  8.4844E-005  
  893.50  3.7193E-004  
  894.00  6.7655E-004  
  894.50  6.3720E-004  
  895.00  2.4556E-004  
  895.50  2.2274E-004  
  896.00  7.8652E-005  
  896.50  1.7576E-004  
  897.00  6.6964E-004  
  897.50  8.1251E-004  
  898.00  4.1550E-004  
  898.50  0.0000E+000  
  899.00  3.7021E-004  
  899.50  2.0330E-005  
