
# From lspdd.org
# 
# Name: DEL Dals LEDDOWNPNLR4 Domestique
# Indice spectral Valeur 
# MSI 0.33 
# SLI 0.56 
# IPI 0.72 
# Pourcentage de bleu 20.8 
# Caractéristique Valeur 
# CCT calculée (K) 2888 
# CCT du fabricant (K) 3000 
# Tension (V) 120 
# Puissance (W) 9.0 
# Efficacité lumineuse (Lum/W) 69.0 
#
# Image: '/app/system/img_1s/2709/medium_image1.JPG?1464613383'
# 

  273.00  0.0000E+000  
  273.50  0.0000E+000  
  274.00  0.0000E+000  
  274.50  0.0000E+000  
  275.00  0.0000E+000  
  275.50  0.0000E+000  
  276.00  0.0000E+000  
  276.50  0.0000E+000  
  277.00  0.0000E+000  
  277.50  0.0000E+000  
  278.00  0.0000E+000  
  278.50  0.0000E+000  
  279.00  0.0000E+000  
  279.50  0.0000E+000  
  280.00  0.0000E+000  
  280.50  0.0000E+000  
  281.00  0.0000E+000  
  281.50  0.0000E+000  
  282.00  0.0000E+000  
  282.50  0.0000E+000  
  283.00  0.0000E+000  
  283.50  0.0000E+000  
  284.00  0.0000E+000  
  284.50  0.0000E+000  
  285.00  0.0000E+000  
  285.50  0.0000E+000  
  286.00  0.0000E+000  
  286.50  0.0000E+000  
  287.00  0.0000E+000  
  287.50  0.0000E+000  
  288.00  0.0000E+000  
  288.50  0.0000E+000  
  289.00  0.0000E+000  
  289.50  0.0000E+000  
  290.00  0.0000E+000  
  290.50  0.0000E+000  
  291.00  0.0000E+000  
  291.50  0.0000E+000  
  292.00  0.0000E+000  
  292.50  0.0000E+000  
  293.00  0.0000E+000  
  293.50  0.0000E+000  
  294.00  0.0000E+000  
  294.50  0.0000E+000  
  295.00  0.0000E+000  
  295.50  0.0000E+000  
  296.00  0.0000E+000  
  296.50  0.0000E+000  
  297.00  0.0000E+000  
  297.50  0.0000E+000  
  298.00  0.0000E+000  
  298.50  0.0000E+000  
  299.00  0.0000E+000  
  299.50  0.0000E+000  
  300.00  6.4554E-005  
  300.50  1.9786E-004  
  301.00  2.1539E-004  
  301.50  1.8885E-004  
  302.00  2.0064E-004  
  302.50  1.8385E-004  
  303.00  2.4642E-004  
  303.50  2.9524E-004  
  304.00  3.0311E-004  
  304.50  3.1138E-004  
  305.00  3.0336E-004  
  305.50  3.3645E-004  
  306.00  4.0754E-004  
  306.50  4.3899E-004  
  307.00  4.2937E-004  
  307.50  3.9005E-004  
  308.00  3.3959E-004  
  308.50  3.2190E-004  
  309.00  3.3468E-004  
  309.50  3.8302E-004  
  310.00  4.2838E-004  
  310.50  4.9903E-004  
  311.00  5.0233E-004  
  311.50  6.5800E-004  
  312.00  7.1873E-004  
  312.50  6.4776E-004  
  313.00  5.6753E-004  
  313.50  3.0205E-004  
  314.00  2.3964E-004  
  314.50  2.6001E-004  
  315.00  2.7222E-004  
  315.50  2.7951E-004  
  316.00  2.7188E-004  
  316.50  2.7742E-004  
  317.00  2.7704E-004  
  317.50  3.2761E-004  
  318.00  3.7025E-004  
  318.50  4.5333E-004  
  319.00  5.7387E-004  
  319.50  5.9978E-004  
  320.00  5.6369E-004  
  320.50  5.1539E-004  
  321.00  4.5638E-004  
  321.50  4.5439E-004  
  322.00  5.0723E-004  
  322.50  5.1948E-004  
  323.00  4.9880E-004  
  323.50  4.4166E-004  
  324.00  3.6270E-004  
  324.50  3.4777E-004  
  325.00  3.8362E-004  
  325.50  3.9075E-004  
  326.00  3.7980E-004  
  326.50  3.1266E-004  
  327.00  3.3355E-004  
  327.50  4.4886E-004  
  328.00  5.3017E-004  
  328.50  6.2775E-004  
  329.00  5.9532E-004  
  329.50  5.4523E-004  
  330.00  5.0944E-004  
  330.50  5.1409E-004  
  331.00  4.9356E-004  
  331.50  5.1279E-004  
  332.00  4.8648E-004  
  332.50  4.3755E-004  
  333.00  4.4607E-004  
  333.50  3.5124E-004  
  334.00  3.4863E-004  
  334.50  4.8279E-004  
  335.00  5.4039E-004  
  335.50  5.8922E-004  
  336.00  6.0306E-004  
  336.50  5.3148E-004  
  337.00  5.3814E-004  
  337.50  5.7429E-004  
  338.00  5.4232E-004  
  338.50  5.4590E-004  
  339.00  5.0638E-004  
  339.50  4.8191E-004  
  340.00  4.7381E-004  
  340.50  4.5591E-004  
  341.00  5.3025E-004  
  341.50  5.9329E-004  
  342.00  5.9027E-004  
  342.50  5.1218E-004  
  343.00  4.3807E-004  
  343.50  3.8649E-004  
  344.00  4.1174E-004  
  344.50  4.5714E-004  
  345.00  4.9668E-004  
  345.50  5.7706E-004  
  346.00  6.2862E-004  
  346.50  6.5125E-004  
  347.00  6.3193E-004  
  347.50  5.7572E-004  
  348.00  5.0341E-004  
  348.50  4.9591E-004  
  349.00  4.8031E-004  
  349.50  4.9401E-004  
  350.00  5.6500E-004  
  350.50  5.6993E-004  
  351.00  5.8940E-004  
  351.50  5.7688E-004  
  352.00  5.9440E-004  
  352.50  5.8316E-004  
  353.00  5.9260E-004  
  353.50  5.9320E-004  
  354.00  5.9558E-004  
  354.50  6.6289E-004  
  355.00  6.6053E-004  
  355.50  6.5123E-004  
  356.00  6.2250E-004  
  356.50  6.1357E-004  
  357.00  6.0923E-004  
  357.50  5.7147E-004  
  358.00  5.2263E-004  
  358.50  4.6853E-004  
  359.00  4.8557E-004  
  359.50  5.4008E-004  
  360.00  5.9779E-004  
  360.50  6.3831E-004  
  361.00  6.4719E-004  
  361.50  6.8721E-004  
  362.00  7.2411E-004  
  362.50  7.7150E-004  
  363.00  7.9033E-004  
  363.50  7.9655E-004  
  364.00  7.9882E-004  
  364.50  7.7039E-004  
  365.00  7.9661E-004  
  365.50  7.7126E-004  
  366.00  7.3435E-004  
  366.50  7.2126E-004  
  367.00  7.2208E-004  
  367.50  6.5775E-004  
  368.00  6.4897E-004  
  368.50  5.6821E-004  
  369.00  5.0730E-004  
  369.50  5.2316E-004  
  370.00  5.2185E-004  
  370.50  5.9739E-004  
  371.00  6.1860E-004  
  371.50  6.5258E-004  
  372.00  6.6680E-004  
  372.50  5.9261E-004  
  373.00  5.8613E-004  
  373.50  5.2670E-004  
  374.00  4.5432E-004  
  374.50  5.1384E-004  
  375.00  5.6561E-004  
  375.50  5.8870E-004  
  376.00  6.1101E-004  
  376.50  6.0455E-004  
  377.00  6.1714E-004  
  377.50  6.9146E-004  
  378.00  7.2095E-004  
  378.50  7.0140E-004  
  379.00  7.0826E-004  
  379.50  7.3498E-004  
  380.00  7.6681E-004  
  380.50  7.8628E-004  
  381.00  7.3896E-004  
  381.50  6.6983E-004  
  382.00  6.4873E-004  
  382.50  6.5650E-004  
  383.00  6.9991E-004  
  383.50  7.0498E-004  
  384.00  7.0058E-004  
  384.50  6.7122E-004  
  385.00  6.9643E-004  
  385.50  7.4648E-004  
  386.00  7.2595E-004  
  386.50  6.9065E-004  
  387.00  5.8359E-004  
  387.50  5.2036E-004  
  388.00  5.8374E-004  
  388.50  6.2465E-004  
  389.00  7.0219E-004  
  389.50  7.5272E-004  
  390.00  7.5307E-004  
  390.50  7.7702E-004  
  391.00  7.8499E-004  
  391.50  7.9906E-004  
  392.00  7.8392E-004  
  392.50  7.9994E-004  
  393.00  7.8472E-004  
  393.50  7.6427E-004  
  394.00  7.9196E-004  
  394.50  7.6642E-004  
  395.00  7.7216E-004  
  395.50  8.2447E-004  
  396.00  8.9966E-004  
  396.50  9.7658E-004  
  397.00  1.0337E-003  
  397.50  1.0476E-003  
  398.00  1.0714E-003  
  398.50  1.0899E-003  
  399.00  1.0810E-003  
  399.50  1.0844E-003  
  400.00  1.0874E-003  
  400.50  1.1693E-003  
  401.00  1.1707E-003  
  401.50  1.1454E-003  
  402.00  1.1315E-003  
  402.50  1.0886E-003  
  403.00  1.0665E-003  
  403.50  1.0402E-003  
  404.00  1.0671E-003  
  404.50  1.1252E-003  
  405.00  1.1774E-003  
  405.50  1.2353E-003  
  406.00  1.2208E-003  
  406.50  1.2548E-003  
  407.00  1.2655E-003  
  407.50  1.2472E-003  
  408.00  1.3092E-003  
  408.50  1.3505E-003  
  409.00  1.3940E-003  
  409.50  1.4249E-003  
  410.00  1.4441E-003  
  410.50  1.4877E-003  
  411.00  1.5490E-003  
  411.50  1.6198E-003  
  412.00  1.7357E-003  
  412.50  1.8181E-003  
  413.00  1.9284E-003  
  413.50  2.0208E-003  
  414.00  2.1295E-003  
  414.50  2.2962E-003  
  415.00  2.4509E-003  
  415.50  2.6064E-003  
  416.00  2.7194E-003  
  416.50  2.7909E-003  
  417.00  2.9124E-003  
  417.50  3.0370E-003  
  418.00  3.2214E-003  
  418.50  3.4174E-003  
  419.00  3.6449E-003  
  419.50  3.8590E-003  
  420.00  4.1125E-003  
  420.50  4.3630E-003  
  421.00  4.6729E-003  
  421.50  5.0282E-003  
  422.00  5.3824E-003  
  422.50  5.7187E-003  
  423.00  6.1166E-003  
  423.50  6.5331E-003  
  424.00  6.9934E-003  
  424.50  7.5076E-003  
  425.00  7.9748E-003  
  425.50  8.4188E-003  
  426.00  8.8549E-003  
  426.50  9.3308E-003  
  427.00  9.8387E-003  
  427.50  1.0420E-002  
  428.00  1.0985E-002  
  428.50  1.1606E-002  
  429.00  1.2255E-002  
  429.50  1.2994E-002  
  430.00  1.3750E-002  
  430.50  1.4495E-002  
  431.00  1.5321E-002  
  431.50  1.6167E-002  
  432.00  1.7077E-002  
  432.50  1.8069E-002  
  433.00  1.9091E-002  
  433.50  2.0253E-002  
  434.00  2.1436E-002  
  434.50  2.2613E-002  
  435.00  2.3781E-002  
  435.50  2.5122E-002  
  436.00  2.6646E-002  
  436.50  2.8160E-002  
  437.00  2.9691E-002  
  437.50  3.1217E-002  
  438.00  3.2847E-002  
  438.50  3.4828E-002  
  439.00  3.6910E-002  
  439.50  3.9138E-002  
  440.00  4.1418E-002  
  440.50  4.3728E-002  
  441.00  4.6307E-002  
  441.50  4.9009E-002  
  442.00  5.1990E-002  
  442.50  5.4968E-002  
  443.00  5.8091E-002  
  443.50  6.1404E-002  
  444.00  6.4868E-002  
  444.50  6.8516E-002  
  445.00  7.2117E-002  
  445.50  7.5849E-002  
  446.00  7.9410E-002  
  446.50  8.3055E-002  
  447.00  8.6702E-002  
  447.50  9.0401E-002  
  448.00  9.4063E-002  
  448.50  9.7590E-002  
  449.00  1.0085E-001  
  449.50  1.0395E-001  
  450.00  1.0614E-001  
  450.50  1.0799E-001  
  451.00  1.0936E-001  
  451.50  1.1062E-001  
  452.00  1.1195E-001  
  452.50  1.1298E-001  
  453.00  1.1385E-001  
  453.50  1.1400E-001  
  454.00  1.1337E-001  
  454.50  1.1217E-001  
  455.00  1.1057E-001  
  455.50  1.0905E-001  
  456.00  1.0753E-001  
  456.50  1.0588E-001  
  457.00  1.0421E-001  
  457.50  1.0189E-001  
  458.00  9.9542E-002  
  458.50  9.7185E-002  
  459.00  9.5091E-002  
  459.50  9.3020E-002  
  460.00  9.1134E-002  
  460.50  8.9205E-002  
  461.00  8.7507E-002  
  461.50  8.5978E-002  
  462.00  8.4495E-002  
  462.50  8.3219E-002  
  463.00  8.2161E-002  
  463.50  8.0982E-002  
  464.00  7.9868E-002  
  464.50  7.8659E-002  
  465.00  7.7505E-002  
  465.50  7.6476E-002  
  466.00  7.5542E-002  
  466.50  7.4676E-002  
  467.00  7.3742E-002  
  467.50  7.2988E-002  
  468.00  7.2212E-002  
  468.50  7.1333E-002  
  469.00  7.0346E-002  
  469.50  6.9196E-002  
  470.00  6.8303E-002  
  470.50  6.7505E-002  
  471.00  6.6439E-002  
  471.50  6.5223E-002  
  472.00  6.3881E-002  
  472.50  6.2697E-002  
  473.00  6.1706E-002  
  473.50  6.0828E-002  
  474.00  5.9998E-002  
  474.50  5.9275E-002  
  475.00  5.8484E-002  
  475.50  5.7642E-002  
  476.00  5.6806E-002  
  476.50  5.6142E-002  
  477.00  5.5667E-002  
  477.50  5.5286E-002  
  478.00  5.5084E-002  
  478.50  5.4866E-002  
  479.00  5.4831E-002  
  479.50  5.4764E-002  
  480.00  5.4742E-002  
  480.50  5.4757E-002  
  481.00  5.4832E-002  
  481.50  5.5048E-002  
  482.00  5.5259E-002  
  482.50  5.5550E-002  
  483.00  5.5817E-002  
  483.50  5.6207E-002  
  484.00  5.6651E-002  
  484.50  5.7048E-002  
  485.00  5.7399E-002  
  485.50  5.7702E-002  
  486.00  5.8123E-002  
  486.50  5.8799E-002  
  487.00  5.9499E-002  
  487.50  6.0135E-002  
  488.00  6.0635E-002  
  488.50  6.1140E-002  
  489.00  6.1740E-002  
  489.50  6.2434E-002  
  490.00  6.3165E-002  
  490.50  6.3921E-002  
  491.00  6.4783E-002  
  491.50  6.5694E-002  
  492.00  6.6590E-002  
  492.50  6.7383E-002  
  493.00  6.8083E-002  
  493.50  6.8866E-002  
  494.00  6.9745E-002  
  494.50  7.0725E-002  
  495.00  7.1777E-002  
  495.50  7.2809E-002  
  496.00  7.3894E-002  
  496.50  7.4874E-002  
  497.00  7.5887E-002  
  497.50  7.6977E-002  
  498.00  7.8063E-002  
  498.50  7.9165E-002  
  499.00  8.0250E-002  
  499.50  8.1283E-002  
  500.00  8.2438E-002  
  500.50  8.3548E-002  
  501.00  8.4671E-002  
  501.50  8.5787E-002  
  502.00  8.6804E-002  
  502.50  8.7837E-002  
  503.00  8.8967E-002  
  503.50  9.0003E-002  
  504.00  9.1016E-002  
  504.50  9.1945E-002  
  505.00  9.2890E-002  
  505.50  9.3800E-002  
  506.00  9.4650E-002  
  506.50  9.5561E-002  
  507.00  9.6577E-002  
  507.50  9.7611E-002  
  508.00  9.8610E-002  
  508.50  9.9442E-002  
  509.00  1.0019E-001  
  509.50  1.0080E-001  
  510.00  1.0150E-001  
  510.50  1.0236E-001  
  511.00  1.0342E-001  
  511.50  1.0434E-001  
  512.00  1.0511E-001  
  512.50  1.0575E-001  
  513.00  1.0630E-001  
  513.50  1.0686E-001  
  514.00  1.0743E-001  
  514.50  1.0815E-001  
  515.00  1.0888E-001  
  515.50  1.0951E-001  
  516.00  1.1006E-001  
  516.50  1.1055E-001  
  517.00  1.1116E-001  
  517.50  1.1172E-001  
  518.00  1.1222E-001  
  518.50  1.1284E-001  
  519.00  1.1335E-001  
  519.50  1.1398E-001  
  520.00  1.1454E-001  
  520.50  1.1509E-001  
  521.00  1.1563E-001  
  521.50  1.1610E-001  
  522.00  1.1644E-001  
  522.50  1.1685E-001  
  523.00  1.1740E-001  
  523.50  1.1800E-001  
  524.00  1.1850E-001  
  524.50  1.1884E-001  
  525.00  1.1927E-001  
  525.50  1.1995E-001  
  526.00  1.2062E-001  
  526.50  1.2123E-001  
  527.00  1.2174E-001  
  527.50  1.2221E-001  
  528.00  1.2278E-001  
  528.50  1.2325E-001  
  529.00  1.2366E-001  
  529.50  1.2402E-001  
  530.00  1.2454E-001  
  530.50  1.2511E-001  
  531.00  1.2568E-001  
  531.50  1.2632E-001  
  532.00  1.2701E-001  
  532.50  1.2763E-001  
  533.00  1.2810E-001  
  533.50  1.2857E-001  
  534.00  1.2921E-001  
  534.50  1.2999E-001  
  535.00  1.3069E-001  
  535.50  1.3131E-001  
  536.00  1.3191E-001  
  536.50  1.3246E-001  
  537.00  1.3302E-001  
  537.50  1.3365E-001  
  538.00  1.3431E-001  
  538.50  1.3489E-001  
  539.00  1.3543E-001  
  539.50  1.3598E-001  
  540.00  1.3675E-001  
  540.50  1.3753E-001  
  541.00  1.3833E-001  
  541.50  1.3910E-001  
  542.00  1.3974E-001  
  542.50  1.4038E-001  
  543.00  1.4092E-001  
  543.50  1.4153E-001  
  544.00  1.4209E-001  
  544.50  1.4273E-001  
  545.00  1.4339E-001  
  545.50  1.4417E-001  
  546.00  1.4484E-001  
  546.50  1.4548E-001  
  547.00  1.4617E-001  
  547.50  1.4693E-001  
  548.00  1.4768E-001  
  548.50  1.4840E-001  
  549.00  1.4915E-001  
  549.50  1.4992E-001  
  550.00  1.5064E-001  
  550.50  1.5139E-001  
  551.00  1.5214E-001  
  551.50  1.5295E-001  
  552.00  1.5370E-001  
  552.50  1.5438E-001  
  553.00  1.5510E-001  
  553.50  1.5583E-001  
  554.00  1.5661E-001  
  554.50  1.5742E-001  
  555.00  1.5824E-001  
  555.50  1.5907E-001  
  556.00  1.5990E-001  
  556.50  1.6081E-001  
  557.00  1.6161E-001  
  557.50  1.6245E-001  
  558.00  1.6323E-001  
  558.50  1.6410E-001  
  559.00  1.6490E-001  
  559.50  1.6581E-001  
  560.00  1.6679E-001  
  560.50  1.6777E-001  
  561.00  1.6877E-001  
  561.50  1.6966E-001  
  562.00  1.7055E-001  
  562.50  1.7134E-001  
  563.00  1.7205E-001  
  563.50  1.7288E-001  
  564.00  1.7383E-001  
  564.50  1.7480E-001  
  565.00  1.7573E-001  
  565.50  1.7653E-001  
  566.00  1.7724E-001  
  566.50  1.7799E-001  
  567.00  1.7888E-001  
  567.50  1.7977E-001  
  568.00  1.8064E-001  
  568.50  1.8146E-001  
  569.00  1.8229E-001  
  569.50  1.8319E-001  
  570.00  1.8395E-001  
  570.50  1.8469E-001  
  571.00  1.8541E-001  
  571.50  1.8618E-001  
  572.00  1.8693E-001  
  572.50  1.8753E-001  
  573.00  1.8811E-001  
  573.50  1.8862E-001  
  574.00  1.8932E-001  
  574.50  1.8995E-001  
  575.00  1.9060E-001  
  575.50  1.9117E-001  
  576.00  1.9171E-001  
  576.50  1.9227E-001  
  577.00  1.9286E-001  
  577.50  1.9355E-001  
  578.00  1.9433E-001  
  578.50  1.9492E-001  
  579.00  1.9546E-001  
  579.50  1.9591E-001  
  580.00  1.9645E-001  
  580.50  1.9703E-001  
  581.00  1.9765E-001  
  581.50  1.9827E-001  
  582.00  1.9882E-001  
  582.50  1.9927E-001  
  583.00  1.9971E-001  
  583.50  2.0024E-001  
  584.00  2.0087E-001  
  584.50  2.0156E-001  
  585.00  2.0226E-001  
  585.50  2.0288E-001  
  586.00  2.0343E-001  
  586.50  2.0396E-001  
  587.00  2.0460E-001  
  587.50  2.0517E-001  
  588.00  2.0594E-001  
  588.50  2.0665E-001  
  589.00  2.0749E-001  
  589.50  2.0812E-001  
  590.00  2.0874E-001  
  590.50  2.0925E-001  
  591.00  2.0996E-001  
  591.50  2.1065E-001  
  592.00  2.1144E-001  
  592.50  2.1218E-001  
  593.00  2.1289E-001  
  593.50  2.1350E-001  
  594.00  2.1401E-001  
  594.50  2.1467E-001  
  595.00  2.1526E-001  
  595.50  2.1597E-001  
  596.00  2.1661E-001  
  596.50  2.1730E-001  
  597.00  2.1797E-001  
  597.50  2.1866E-001  
  598.00  2.1933E-001  
  598.50  2.1992E-001  
  599.00  2.2050E-001  
  599.50  2.2114E-001  
  600.00  2.2182E-001  
  600.50  2.2252E-001  
  601.00  2.2309E-001  
  601.50  2.2379E-001  
  602.00  2.2440E-001  
  602.50  2.2509E-001  
  603.00  2.2573E-001  
  603.50  2.2638E-001  
  604.00  2.2707E-001  
  604.50  2.2780E-001  
  605.00  2.2852E-001  
  605.50  2.2920E-001  
  606.00  2.2989E-001  
  606.50  2.3067E-001  
  607.00  2.3153E-001  
  607.50  2.3246E-001  
  608.00  2.3336E-001  
  608.50  2.3419E-001  
  609.00  2.3485E-001  
  609.50  2.3552E-001  
  610.00  2.3628E-001  
  610.50  2.3711E-001  
  611.00  2.3801E-001  
  611.50  2.3891E-001  
  612.00  2.3972E-001  
  612.50  2.4047E-001  
  613.00  2.4119E-001  
  613.50  2.4197E-001  
  614.00  2.4276E-001  
  614.50  2.4356E-001  
  615.00  2.4433E-001  
  615.50  2.4515E-001  
  616.00  2.4570E-001  
  616.50  2.4621E-001  
  617.00  2.4679E-001  
  617.50  2.4758E-001  
  618.00  2.4851E-001  
  618.50  2.4926E-001  
  619.00  2.4971E-001  
  619.50  2.4995E-001  
  620.00  2.5019E-001  
  620.50  2.5054E-001  
  621.00  2.5087E-001  
  621.50  2.5099E-001  
  622.00  2.5101E-001  
  622.50  2.5097E-001  
  623.00  2.5097E-001  
  623.50  2.5094E-001  
  624.00  2.5092E-001  
  624.50  2.5094E-001  
  625.00  2.5092E-001  
  625.50  2.5069E-001  
  626.00  2.5043E-001  
  626.50  2.5026E-001  
  627.00  2.5029E-001  
  627.50  2.5015E-001  
  628.00  2.4994E-001  
  628.50  2.4977E-001  
  629.00  2.4970E-001  
  629.50  2.4963E-001  
  630.00  2.4951E-001  
  630.50  2.4927E-001  
  631.00  2.4900E-001  
  631.50  2.4875E-001  
  632.00  2.4853E-001  
  632.50  2.4814E-001  
  633.00  2.4776E-001  
  633.50  2.4736E-001  
  634.00  2.4706E-001  
  634.50  2.4655E-001  
  635.00  2.4593E-001  
  635.50  2.4522E-001  
  636.00  2.4449E-001  
  636.50  2.4383E-001  
  637.00  2.4319E-001  
  637.50  2.4250E-001  
  638.00  2.4162E-001  
  638.50  2.4064E-001  
  639.00  2.3941E-001  
  639.50  2.3829E-001  
  640.00  2.3723E-001  
  640.50  2.3611E-001  
  641.00  2.3491E-001  
  641.50  2.3364E-001  
  642.00  2.3244E-001  
  642.50  2.3115E-001  
  643.00  2.2968E-001  
  643.50  2.2829E-001  
  644.00  2.2707E-001  
  644.50  2.2555E-001  
  645.00  2.2375E-001  
  645.50  2.2194E-001  
  646.00  2.2052E-001  
  646.50  2.1927E-001  
  647.00  2.1765E-001  
  647.50  2.1568E-001  
  648.00  2.1349E-001  
  648.50  2.1127E-001  
  649.00  2.0927E-001  
  649.50  2.0725E-001  
  650.00  2.0526E-001  
  650.50  2.0302E-001  
  651.00  2.0075E-001  
  651.50  1.9855E-001  
  652.00  1.9669E-001  
  652.50  1.9469E-001  
  653.00  1.9248E-001  
  653.50  1.9003E-001  
  654.00  1.8788E-001  
  654.50  1.8587E-001  
  655.00  1.8398E-001  
  655.50  1.8176E-001  
  656.00  1.7953E-001  
  656.50  1.7729E-001  
  657.00  1.7524E-001  
  657.50  1.7326E-001  
  658.00  1.7125E-001  
  658.50  1.6927E-001  
  659.00  1.6718E-001  
  659.50  1.6513E-001  
  660.00  1.6321E-001  
  660.50  1.6122E-001  
  661.00  1.5914E-001  
  661.50  1.5686E-001  
  662.00  1.5448E-001  
  662.50  1.5234E-001  
  663.00  1.5056E-001  
  663.50  1.4889E-001  
  664.00  1.4711E-001  
  664.50  1.4484E-001  
  665.00  1.4254E-001  
  665.50  1.4020E-001  
  666.00  1.3813E-001  
  666.50  1.3624E-001  
  667.00  1.3451E-001  
  667.50  1.3261E-001  
  668.00  1.3068E-001  
  668.50  1.2882E-001  
  669.00  1.2702E-001  
  669.50  1.2515E-001  
  670.00  1.2318E-001  
  670.50  1.2151E-001  
  671.00  1.1992E-001  
  671.50  1.1825E-001  
  672.00  1.1647E-001  
  672.50  1.1489E-001  
  673.00  1.1332E-001  
  673.50  1.1172E-001  
  674.00  1.1000E-001  
  674.50  1.0828E-001  
  675.00  1.0654E-001  
  675.50  1.0475E-001  
  676.00  1.0314E-001  
  676.50  1.0155E-001  
  677.00  9.9929E-002  
  677.50  9.8240E-002  
  678.00  9.6719E-002  
  678.50  9.5215E-002  
  679.00  9.3610E-002  
  679.50  9.1969E-002  
  680.00  9.0485E-002  
  680.50  8.9124E-002  
  681.00  8.7732E-002  
  681.50  8.6147E-002  
  682.00  8.4737E-002  
  682.50  8.3443E-002  
  683.00  8.2285E-002  
  683.50  8.0814E-002  
  684.00  7.9271E-002  
  684.50  7.7809E-002  
  685.00  7.6606E-002  
  685.50  7.5665E-002  
  686.00  7.4705E-002  
  686.50  7.3748E-002  
  687.00  7.2513E-002  
  687.50  7.1454E-002  
  688.00  7.0308E-002  
  688.50  6.9229E-002  
  689.00  6.7978E-002  
  689.50  6.6828E-002  
  690.00  6.5769E-002  
  690.50  6.4800E-002  
  691.00  6.3739E-002  
  691.50  6.2572E-002  
  692.00  6.1581E-002  
  692.50  6.0464E-002  
  693.00  5.9258E-002  
  693.50  5.8225E-002  
  694.00  5.7486E-002  
  694.50  5.6840E-002  
  695.00  5.5970E-002  
  695.50  5.5022E-002  
  696.00  5.4145E-002  
  696.50  5.3308E-002  
  697.00  5.2490E-002  
  697.50  5.1457E-002  
  698.00  5.0418E-002  
  698.50  4.9541E-002  
  699.00  4.8802E-002  
  699.50  4.7965E-002  
  700.00  4.7087E-002  
  700.50  4.6246E-002  
  701.00  4.5528E-002  
  701.50  4.4782E-002  
  702.00  4.3948E-002  
  702.50  4.3168E-002  
  703.00  4.2424E-002  
  703.50  4.1791E-002  
  704.00  4.1129E-002  
  704.50  4.0338E-002  
  705.00  3.9637E-002  
  705.50  3.9013E-002  
  706.00  3.8455E-002  
  706.50  3.7872E-002  
  707.00  3.7127E-002  
  707.50  3.6426E-002  
  708.00  3.5913E-002  
  708.50  3.5426E-002  
  709.00  3.4964E-002  
  709.50  3.4171E-002  
  710.00  3.3472E-002  
  710.50  3.2897E-002  
  711.00  3.2373E-002  
  711.50  3.1835E-002  
  712.00  3.1230E-002  
  712.50  3.0817E-002  
  713.00  3.0297E-002  
  713.50  2.9774E-002  
  714.00  2.9126E-002  
  714.50  2.8711E-002  
  715.00  2.8292E-002  
  715.50  2.7799E-002  
  716.00  2.7048E-002  
  716.50  2.6358E-002  
  717.00  2.5915E-002  
  717.50  2.5612E-002  
  718.00  2.5228E-002  
  718.50  2.4804E-002  
  719.00  2.4427E-002  
  719.50  2.4225E-002  
  720.00  2.3870E-002  
  720.50  2.3433E-002  
  721.00  2.3021E-002  
  721.50  2.2666E-002  
  722.00  2.2165E-002  
  722.50  2.1591E-002  
  723.00  2.1020E-002  
  723.50  2.0579E-002  
  724.00  2.0114E-002  
  724.50  1.9764E-002  
  725.00  1.9479E-002  
  725.50  1.9155E-002  
  726.00  1.8864E-002  
  726.50  1.8507E-002  
  727.00  1.8121E-002  
  727.50  1.7803E-002  
  728.00  1.7648E-002  
  728.50  1.7540E-002  
  729.00  1.7300E-002  
  729.50  1.6894E-002  
  730.00  1.6441E-002  
  730.50  1.5974E-002  
  731.00  1.5730E-002  
  731.50  1.5587E-002  
  732.00  1.5444E-002  
  732.50  1.5111E-002  
  733.00  1.4751E-002  
  733.50  1.4493E-002  
  734.00  1.4385E-002  
  734.50  1.4316E-002  
  735.00  1.4080E-002  
  735.50  1.3803E-002  
  736.00  1.3510E-002  
  736.50  1.3278E-002  
  737.00  1.3103E-002  
  737.50  1.2922E-002  
  738.00  1.2946E-002  
  738.50  1.2894E-002  
  739.00  1.2635E-002  
  739.50  1.2452E-002  
  740.00  1.2290E-002  
  740.50  1.2192E-002  
  741.00  1.1932E-002  
  741.50  1.1792E-002  
  742.00  1.1710E-002  
  742.50  1.1540E-002  
  743.00  1.1367E-002  
  743.50  1.1121E-002  
  744.00  1.0976E-002  
  744.50  1.0885E-002  
  745.00  1.0797E-002  
  745.50  1.0521E-002  
  746.00  1.0243E-002  
  746.50  1.0111E-002  
  747.00  1.0023E-002  
  747.50  1.0000E-002  
  748.00  9.7548E-003  
  748.50  9.6654E-003  
  749.00  9.5401E-003  
  749.50  9.4691E-003  
  750.00  9.2783E-003  
  750.50  8.8749E-003  
  751.00  8.5155E-003  
  751.50  8.4268E-003  
  752.00  8.6324E-003  
  752.50  8.7320E-003  
  753.00  8.6609E-003  
  753.50  8.6488E-003  
  754.00  8.5610E-003  
  754.50  8.4930E-003  
  755.00  8.2813E-003  
  755.50  8.1507E-003  
  756.00  8.1593E-003  
  756.50  8.2036E-003  
  757.00  8.0643E-003  
  757.50  7.9985E-003  
  758.00  7.8578E-003  
  758.50  7.7487E-003  
  759.00  7.6349E-003  
  759.50  7.4507E-003  
  760.00  7.1890E-003  
  760.50  6.8980E-003  
  761.00  6.8601E-003  
  761.50  6.8548E-003  
  762.00  6.8634E-003  
  762.50  6.7943E-003  
  763.00  6.7087E-003  
  763.50  6.6342E-003  
  764.00  6.5931E-003  
  764.50  6.4744E-003  
  765.00  6.4051E-003  
  765.50  6.2870E-003  
  766.00  6.2602E-003  
  766.50  6.1174E-003  
  767.00  6.1517E-003  
  767.50  6.1642E-003  
  768.00  6.1638E-003  
  768.50  6.0517E-003  
  769.00  5.9112E-003  
  769.50  5.7394E-003  
  770.00  5.6239E-003  
  770.50  5.5847E-003  
  771.00  5.5144E-003  
  771.50  5.4991E-003  
  772.00  5.4378E-003  
  772.50  5.2699E-003  
  773.00  5.1008E-003  
  773.50  4.9707E-003  
  774.00  4.9929E-003  
  774.50  4.6734E-003  
  775.00  4.5406E-003  
  775.50  4.6315E-003  
  776.00  4.8277E-003  
  776.50  4.7757E-003  
  777.00  4.5335E-003  
  777.50  4.3913E-003  
  778.00  4.2172E-003  
  778.50  4.0762E-003  
  779.00  4.0962E-003  
  779.50  4.2127E-003  
  780.00  4.1443E-003  
  780.50  4.2648E-003  
  781.00  4.4193E-003  
  781.50  4.5747E-003  
  782.00  4.4873E-003  
  782.50  4.1326E-003  
  783.00  3.9368E-003  
  783.50  3.9255E-003  
  784.00  4.0596E-003  
  784.50  3.9873E-003  
  785.00  3.8883E-003  
  785.50  3.8539E-003  
  786.00  3.7453E-003  
  786.50  3.5075E-003  
  787.00  3.4109E-003  
  787.50  3.3164E-003  
  788.00  3.2191E-003  
  788.50  3.1637E-003  
  789.00  3.1720E-003  
  789.50  3.0872E-003  
  790.00  3.0094E-003  
  790.50  3.1346E-003  
  791.00  3.1202E-003  
  791.50  3.0779E-003  
  792.00  3.0326E-003  
  792.50  3.1586E-003  
  793.00  3.0766E-003  
  793.50  2.9916E-003  
  794.00  2.8913E-003  
  794.50  2.6510E-003  
  795.00  2.4213E-003  
  795.50  2.3184E-003  
  796.00  2.5741E-003  
  796.50  2.7036E-003  
  797.00  2.7562E-003  
  797.50  2.5990E-003  
  798.00  2.4323E-003  
  798.50  2.5039E-003  
  799.00  2.5535E-003  
  799.50  2.6766E-003  
  800.00  2.6508E-003  
  800.50  2.4413E-003  
  801.00  2.0055E-003  
  801.50  1.8400E-003  
  802.00  2.0168E-003  
  802.50  2.3199E-003  
  803.00  2.1141E-003  
  803.50  1.8658E-003  
  804.00  1.9662E-003  
  804.50  2.0610E-003  
  805.00  1.8484E-003  
  805.50  1.5516E-003  
  806.00  1.5797E-003  
  806.50  1.6578E-003  
  807.00  1.8427E-003  
  807.50  2.0856E-003  
  808.00  2.2950E-003  
  808.50  2.1558E-003  
  809.00  2.1232E-003  
  809.50  2.0316E-003  
  810.00  2.2101E-003  
  810.50  2.1226E-003  
  811.00  1.8468E-003  
  811.50  1.8383E-003  
  812.00  2.0207E-003  
  812.50  2.1475E-003  
  813.00  2.0974E-003  
  813.50  2.0340E-003  
  814.00  2.0213E-003  
  814.50  1.8983E-003  
  815.00  2.0019E-003  
  815.50  2.1675E-003  
  816.00  2.0548E-003  
  816.50  1.6376E-003  
  817.00  1.4732E-003  
  817.50  1.4365E-003  
  818.00  1.1305E-003  
  818.50  1.2576E-003  
  819.00  1.4499E-003  
  819.50  1.5430E-003  
  820.00  1.2703E-003  
  820.50  1.0157E-003  
  821.00  1.1116E-003  
  821.50  1.2879E-003  
  822.00  1.7898E-003  
  822.50  1.8943E-003  
  823.00  1.5883E-003  
  823.50  1.3345E-003  
  824.00  1.4432E-003  
  824.50  1.5860E-003  
  825.00  1.1729E-003  
  825.50  1.0732E-003  
  826.00  1.2185E-003  
  826.50  1.4063E-003  
  827.00  1.3296E-003  
  827.50  1.2103E-003  
  828.00  1.3513E-003  
  828.50  1.3666E-003  
  829.00  1.3562E-003  
  829.50  9.4334E-004  
  830.00  9.2403E-004  
  830.50  9.8054E-004  
  831.00  9.0125E-004  
  831.50  1.1209E-003  
  832.00  1.7684E-003  
  832.50  2.0770E-003  
  833.00  1.6402E-003  
  833.50  1.5524E-003  
  834.00  1.2527E-003  
  834.50  9.7839E-004  
  835.00  1.0671E-003  
  835.50  1.3940E-003  
  836.00  1.3001E-003  
  836.50  1.2682E-003  
  837.00  1.6683E-003  
  837.50  1.6573E-003  
  838.00  1.1737E-003  
  838.50  5.2885E-004  
  839.00  5.7763E-005  
  839.50  8.3716E-005  
  840.00  6.8888E-004  
  840.50  1.1012E-003  
  841.00  9.0039E-004  
  841.50  9.2761E-004  
  842.00  7.0597E-004  
  842.50  3.8185E-004  
  843.00  3.9114E-004  
  843.50  8.4449E-004  
  844.00  1.0697E-003  
  844.50  6.5081E-004  
  845.00  6.1426E-004  
  845.50  8.3342E-004  
  846.00  7.6326E-004  
  846.50  6.3598E-004  
  847.00  8.3438E-004  
  847.50  1.3240E-003  
  848.00  1.1918E-003  
  848.50  1.0818E-003  
  849.00  7.1187E-004  
  849.50  5.5703E-004  
  850.00  5.4199E-004  
  850.50  6.9517E-004  
  851.00  3.5073E-004  
  851.50  5.9637E-004  
  852.00  1.1555E-003  
  852.50  1.3118E-003  
  853.00  7.0716E-004  
  853.50  2.9139E-004  
  854.00  1.0405E-004  
  854.50  2.0165E-004  
  855.00  6.6824E-004  
  855.50  7.0084E-004  
  856.00  5.0077E-004  
  856.50  7.0865E-004  
  857.00  9.3626E-004  
  857.50  9.0334E-004  
  858.00  4.4423E-004  
  858.50  9.2370E-005  
  859.00  5.6574E-004  
  859.50  1.0082E-003  
  860.00  1.3148E-003  
  860.50  9.6155E-004  
  861.00  7.8175E-004  
  861.50  7.1869E-004  
  862.00  5.2001E-004  
  862.50  3.6033E-004  
  863.00  3.9977E-004  
  863.50  2.5505E-004  
  864.00  2.3085E-004  
  864.50  1.1131E-004  
  865.00  0.0000E+000  
  865.50  0.0000E+000  
  866.00  2.1355E-004  
  866.50  9.0917E-004  
  867.00  1.1856E-003  
  867.50  1.4539E-003  
  868.00  1.2045E-003  
  868.50  7.2104E-004  
  869.00  1.9116E-004  
  869.50  4.1980E-004  
  870.00  6.3807E-004  
  870.50  5.9605E-004  
  871.00  6.3281E-004  
  871.50  7.9811E-004  
  872.00  3.0113E-004  
  872.50  2.7164E-006  
  873.00  0.0000E+000  
  873.50  0.0000E+000  
  874.00  1.6270E-004  
  874.50  5.7847E-004  
  875.00  2.5340E-004  
  875.50  3.5711E-004  
  876.00  3.5251E-004  
  876.50  1.0211E-004  
  877.00  2.6399E-004  
  877.50  8.6411E-004  
  878.00  1.1351E-003  
  878.50  9.9775E-004  
  879.00  9.9316E-004  
  879.50  1.1693E-004  
  880.00  0.0000E+000  
  880.50  2.9930E-005  
  881.00  7.9295E-004  
  881.50  1.4923E-003  
  882.00  1.5463E-003  
  882.50  1.2076E-003  
  883.00  7.6044E-004  
  883.50  5.0328E-005  
  884.00  4.7601E-005  
  884.50  7.2335E-004  
  885.00  6.2907E-004  
  885.50  2.8767E-004  
  886.00  7.6235E-004  
  886.50  5.5593E-005  
  887.00  8.7371E-005  
  887.50  1.1258E-003  
  888.00  1.7277E-003  
  888.50  1.7825E-003  
  889.00  2.2884E-003  
  889.50  1.9530E-003  
  890.00  1.4029E-003  
  890.50  1.0117E-003  
  891.00  1.0468E-003  
  891.50  8.5834E-004  
  892.00  1.1695E-003  
  892.50  1.1811E-003  
  893.00  6.7373E-004  
  893.50  9.0635E-004  
  894.00  1.2218E-003  
  894.50  1.2903E-003  
  895.00  9.3798E-004  
  895.50  6.3424E-004  
  896.00  9.0445E-004  
  896.50  1.5686E-003  
  897.00  1.6713E-003  
  897.50  1.3979E-003  
  898.00  1.4506E-003  
  898.50  9.2225E-004  
  899.00  1.7083E-003  
  899.50  4.1913E-005  
