
# From lspdd.org
# 
# Name: DEL Dals LEDDOWNPNLR3 Domestique
# Indice spectral Valeur 
# MSI 0.33 
# SLI 0.56 
# IPI 0.74 
# Pourcentage de bleu 20.4 
# Caractéristique Valeur 
# CCT calculée (K) 2900 
# CCT du fabricant (K) 3000 
# Tension (V) 120 
# Puissance (W) 6.0 
# Efficacité lumineuse (Lum/W) 75.0 
#
# Image: '/app/system/img_1s/2710/medium_image1.JPG?1464613387'
# 

  273.00  0.0000E+000  
  273.50  0.0000E+000  
  274.00  0.0000E+000  
  274.50  0.0000E+000  
  275.00  0.0000E+000  
  275.50  0.0000E+000  
  276.00  0.0000E+000  
  276.50  0.0000E+000  
  277.00  0.0000E+000  
  277.50  0.0000E+000  
  278.00  0.0000E+000  
  278.50  0.0000E+000  
  279.00  0.0000E+000  
  279.50  0.0000E+000  
  280.00  0.0000E+000  
  280.50  0.0000E+000  
  281.00  0.0000E+000  
  281.50  0.0000E+000  
  282.00  0.0000E+000  
  282.50  0.0000E+000  
  283.00  0.0000E+000  
  283.50  0.0000E+000  
  284.00  0.0000E+000  
  284.50  0.0000E+000  
  285.00  0.0000E+000  
  285.50  0.0000E+000  
  286.00  0.0000E+000  
  286.50  0.0000E+000  
  287.00  0.0000E+000  
  287.50  0.0000E+000  
  288.00  0.0000E+000  
  288.50  0.0000E+000  
  289.00  0.0000E+000  
  289.50  0.0000E+000  
  290.00  0.0000E+000  
  290.50  0.0000E+000  
  291.00  0.0000E+000  
  291.50  0.0000E+000  
  292.00  0.0000E+000  
  292.50  0.0000E+000  
  293.00  0.0000E+000  
  293.50  0.0000E+000  
  294.00  0.0000E+000  
  294.50  0.0000E+000  
  295.00  0.0000E+000  
  295.50  0.0000E+000  
  296.00  0.0000E+000  
  296.50  0.0000E+000  
  297.00  0.0000E+000  
  297.50  0.0000E+000  
  298.00  0.0000E+000  
  298.50  0.0000E+000  
  299.00  0.0000E+000  
  299.50  0.0000E+000  
  300.00  4.3495E-005  
  300.50  1.2430E-004  
  301.00  1.2226E-004  
  301.50  1.0722E-004  
  302.00  1.6120E-004  
  302.50  2.2397E-004  
  303.00  2.6908E-004  
  303.50  3.4857E-004  
  304.00  3.9570E-004  
  304.50  4.0870E-004  
  305.00  4.6760E-004  
  305.50  4.6878E-004  
  306.00  4.4337E-004  
  306.50  4.2849E-004  
  307.00  3.8277E-004  
  307.50  3.4678E-004  
  308.00  3.2712E-004  
  308.50  3.0679E-004  
  309.00  3.4063E-004  
  309.50  4.0292E-004  
  310.00  4.8445E-004  
  310.50  5.3214E-004  
  311.00  5.5724E-004  
  311.50  7.5514E-004  
  312.00  8.8527E-004  
  312.50  9.8265E-004  
  313.00  9.2990E-004  
  313.50  6.3691E-004  
  314.00  4.9207E-004  
  314.50  4.3639E-004  
  315.00  4.5714E-004  
  315.50  4.8285E-004  
  316.00  4.9570E-004  
  316.50  4.8894E-004  
  317.00  4.8515E-004  
  317.50  4.9656E-004  
  318.00  5.2137E-004  
  318.50  5.9938E-004  
  319.00  6.3948E-004  
  319.50  5.9939E-004  
  320.00  5.1007E-004  
  320.50  4.2142E-004  
  321.00  4.0647E-004  
  321.50  5.0509E-004  
  322.00  6.3538E-004  
  322.50  6.5330E-004  
  323.00  5.9352E-004  
  323.50  4.5930E-004  
  324.00  3.7636E-004  
  324.50  3.4148E-004  
  325.00  3.6479E-004  
  325.50  3.6029E-004  
  326.00  3.4308E-004  
  326.50  3.6584E-004  
  327.00  4.5413E-004  
  327.50  5.7286E-004  
  328.00  6.4259E-004  
  328.50  6.7899E-004  
  329.00  6.2708E-004  
  329.50  5.9074E-004  
  330.00  5.8187E-004  
  330.50  6.2802E-004  
  331.00  6.6250E-004  
  331.50  6.8467E-004  
  332.00  6.0916E-004  
  332.50  4.7762E-004  
  333.00  4.1236E-004  
  333.50  3.6188E-004  
  334.00  4.0238E-004  
  334.50  5.6088E-004  
  335.00  5.9623E-004  
  335.50  6.3377E-004  
  336.00  6.1968E-004  
  336.50  5.4470E-004  
  337.00  5.5354E-004  
  337.50  5.6750E-004  
  338.00  5.5840E-004  
  338.50  5.4319E-004  
  339.00  4.5744E-004  
  339.50  4.0917E-004  
  340.00  4.0143E-004  
  340.50  4.2631E-004  
  341.00  4.8178E-004  
  341.50  5.5274E-004  
  342.00  5.7992E-004  
  342.50  5.4643E-004  
  343.00  5.1755E-004  
  343.50  4.9178E-004  
  344.00  5.2703E-004  
  344.50  5.7075E-004  
  345.00  6.0748E-004  
  345.50  6.2942E-004  
  346.00  6.2001E-004  
  346.50  6.2948E-004  
  347.00  6.1033E-004  
  347.50  5.8671E-004  
  348.00  5.5454E-004  
  348.50  5.5404E-004  
  349.00  5.5337E-004  
  349.50  5.9769E-004  
  350.00  6.5203E-004  
  350.50  6.2534E-004  
  351.00  6.2570E-004  
  351.50  6.5038E-004  
  352.00  7.3549E-004  
  352.50  7.5126E-004  
  353.00  7.0131E-004  
  353.50  6.0747E-004  
  354.00  5.0939E-004  
  354.50  5.6800E-004  
  355.00  6.1026E-004  
  355.50  6.5600E-004  
  356.00  7.1204E-004  
  356.50  6.8665E-004  
  357.00  6.0487E-004  
  357.50  5.1462E-004  
  358.00  4.4994E-004  
  358.50  5.3612E-004  
  359.00  6.0665E-004  
  359.50  6.5608E-004  
  360.00  6.5862E-004  
  360.50  6.6044E-004  
  361.00  6.5301E-004  
  361.50  6.4740E-004  
  362.00  6.6783E-004  
  362.50  6.6162E-004  
  363.00  7.2871E-004  
  363.50  7.9634E-004  
  364.00  8.0477E-004  
  364.50  7.6018E-004  
  365.00  7.4847E-004  
  365.50  7.1087E-004  
  366.00  7.1179E-004  
  366.50  7.1265E-004  
  367.00  6.7863E-004  
  367.50  6.7579E-004  
  368.00  7.2467E-004  
  368.50  7.7482E-004  
  369.00  7.6146E-004  
  369.50  7.5006E-004  
  370.00  6.6463E-004  
  370.50  6.7225E-004  
  371.00  6.5943E-004  
  371.50  6.7968E-004  
  372.00  7.6346E-004  
  372.50  7.6665E-004  
  373.00  7.9020E-004  
  373.50  7.5484E-004  
  374.00  6.5524E-004  
  374.50  6.2852E-004  
  375.00  6.2693E-004  
  375.50  6.6007E-004  
  376.00  7.0673E-004  
  376.50  7.2650E-004  
  377.00  7.3933E-004  
  377.50  7.3574E-004  
  378.00  7.6018E-004  
  378.50  7.5488E-004  
  379.00  7.6502E-004  
  379.50  8.1647E-004  
  380.00  7.9825E-004  
  380.50  7.6218E-004  
  381.00  7.2843E-004  
  381.50  6.6244E-004  
  382.00  7.0791E-004  
  382.50  7.3485E-004  
  383.00  7.9903E-004  
  383.50  8.2392E-004  
  384.00  8.2618E-004  
  384.50  7.7341E-004  
  385.00  7.4648E-004  
  385.50  7.3647E-004  
  386.00  7.1018E-004  
  386.50  7.0917E-004  
  387.00  6.7723E-004  
  387.50  6.6014E-004  
  388.00  7.4798E-004  
  388.50  7.6323E-004  
  389.00  7.5596E-004  
  389.50  7.6375E-004  
  390.00  7.2798E-004  
  390.50  7.6899E-004  
  391.00  8.2818E-004  
  391.50  8.4132E-004  
  392.00  8.5690E-004  
  392.50  8.7798E-004  
  393.00  8.8244E-004  
  393.50  9.1383E-004  
  394.00  9.2641E-004  
  394.50  8.9869E-004  
  395.00  8.6629E-004  
  395.50  8.3960E-004  
  396.00  8.6048E-004  
  396.50  9.3069E-004  
  397.00  9.8645E-004  
  397.50  9.9250E-004  
  398.00  9.8197E-004  
  398.50  9.6514E-004  
  399.00  9.3291E-004  
  399.50  9.3861E-004  
  400.00  9.7478E-004  
  400.50  1.0352E-003  
  401.00  1.0648E-003  
  401.50  1.0798E-003  
  402.00  1.0923E-003  
  402.50  1.1420E-003  
  403.00  1.1732E-003  
  403.50  1.1959E-003  
  404.00  1.2091E-003  
  404.50  1.2069E-003  
  405.00  1.2503E-003  
  405.50  1.2549E-003  
  406.00  1.2617E-003  
  406.50  1.2595E-003  
  407.00  1.2433E-003  
  407.50  1.2130E-003  
  408.00  1.2556E-003  
  408.50  1.3434E-003  
  409.00  1.4534E-003  
  409.50  1.5335E-003  
  410.00  1.5281E-003  
  410.50  1.4733E-003  
  411.00  1.4529E-003  
  411.50  1.5283E-003  
  412.00  1.6368E-003  
  412.50  1.7152E-003  
  413.00  1.7493E-003  
  413.50  1.7709E-003  
  414.00  1.8596E-003  
  414.50  1.9948E-003  
  415.00  2.1398E-003  
  415.50  2.2320E-003  
  416.00  2.2548E-003  
  416.50  2.3036E-003  
  417.00  2.4099E-003  
  417.50  2.5940E-003  
  418.00  2.8110E-003  
  418.50  2.9502E-003  
  419.00  3.0792E-003  
  419.50  3.2182E-003  
  420.00  3.3653E-003  
  420.50  3.5650E-003  
  421.00  3.7594E-003  
  421.50  3.9616E-003  
  422.00  4.1688E-003  
  422.50  4.3371E-003  
  423.00  4.5487E-003  
  423.50  4.8922E-003  
  424.00  5.2878E-003  
  424.50  5.7387E-003  
  425.00  6.1251E-003  
  425.50  6.4453E-003  
  426.00  6.7324E-003  
  426.50  7.0156E-003  
  427.00  7.3993E-003  
  427.50  7.8709E-003  
  428.00  8.3339E-003  
  428.50  8.8430E-003  
  429.00  9.3526E-003  
  429.50  9.9097E-003  
  430.00  1.0481E-002  
  430.50  1.1036E-002  
  431.00  1.1610E-002  
  431.50  1.2273E-002  
  432.00  1.2977E-002  
  432.50  1.3808E-002  
  433.00  1.4670E-002  
  433.50  1.5604E-002  
  434.00  1.6498E-002  
  434.50  1.7401E-002  
  435.00  1.8328E-002  
  435.50  1.9383E-002  
  436.00  2.0601E-002  
  436.50  2.1842E-002  
  437.00  2.3124E-002  
  437.50  2.4475E-002  
  438.00  2.5877E-002  
  438.50  2.7390E-002  
  439.00  2.8987E-002  
  439.50  3.0775E-002  
  440.00  3.2758E-002  
  440.50  3.4929E-002  
  441.00  3.7232E-002  
  441.50  3.9609E-002  
  442.00  4.2259E-002  
  442.50  4.5108E-002  
  443.00  4.8205E-002  
  443.50  5.1453E-002  
  444.00  5.4734E-002  
  444.50  5.8312E-002  
  445.00  6.2050E-002  
  445.50  6.6287E-002  
  446.00  7.0606E-002  
  446.50  7.5222E-002  
  447.00  7.9876E-002  
  447.50  8.4588E-002  
  448.00  8.9405E-002  
  448.50  9.3978E-002  
  449.00  9.8645E-002  
  449.50  1.0335E-001  
  450.00  1.0728E-001  
  450.50  1.1099E-001  
  451.00  1.1415E-001  
  451.50  1.1677E-001  
  452.00  1.1955E-001  
  452.50  1.2166E-001  
  453.00  1.2332E-001  
  453.50  1.2390E-001  
  454.00  1.2353E-001  
  454.50  1.2237E-001  
  455.00  1.2059E-001  
  455.50  1.1853E-001  
  456.00  1.1627E-001  
  456.50  1.1376E-001  
  457.00  1.1125E-001  
  457.50  1.0818E-001  
  458.00  1.0511E-001  
  458.50  1.0216E-001  
  459.00  9.9370E-002  
  459.50  9.6808E-002  
  460.00  9.4443E-002  
  460.50  9.2201E-002  
  461.00  9.0249E-002  
  461.50  8.8518E-002  
  462.00  8.6981E-002  
  462.50  8.5718E-002  
  463.00  8.4778E-002  
  463.50  8.3785E-002  
  464.00  8.2993E-002  
  464.50  8.2113E-002  
  465.00  8.1244E-002  
  465.50  8.0568E-002  
  466.00  8.0028E-002  
  466.50  7.9577E-002  
  467.00  7.9063E-002  
  467.50  7.8307E-002  
  468.00  7.7434E-002  
  468.50  7.6507E-002  
  469.00  7.5562E-002  
  469.50  7.4518E-002  
  470.00  7.3494E-002  
  470.50  7.2417E-002  
  471.00  7.1065E-002  
  471.50  6.9667E-002  
  472.00  6.8186E-002  
  472.50  6.6764E-002  
  473.00  6.5588E-002  
  473.50  6.4460E-002  
  474.00  6.3330E-002  
  474.50  6.2354E-002  
  475.00  6.1227E-002  
  475.50  6.0231E-002  
  476.00  5.9262E-002  
  476.50  5.8569E-002  
  477.00  5.8116E-002  
  477.50  5.7751E-002  
  478.00  5.7560E-002  
  478.50  5.7422E-002  
  479.00  5.7394E-002  
  479.50  5.7452E-002  
  480.00  5.7453E-002  
  480.50  5.7574E-002  
  481.00  5.7771E-002  
  481.50  5.8160E-002  
  482.00  5.8576E-002  
  482.50  5.8924E-002  
  483.00  5.9296E-002  
  483.50  5.9648E-002  
  484.00  6.0225E-002  
  484.50  6.0827E-002  
  485.00  6.1386E-002  
  485.50  6.1961E-002  
  486.00  6.2402E-002  
  486.50  6.3109E-002  
  487.00  6.3691E-002  
  487.50  6.4278E-002  
  488.00  6.4830E-002  
  488.50  6.5508E-002  
  489.00  6.6352E-002  
  489.50  6.7170E-002  
  490.00  6.7904E-002  
  490.50  6.8665E-002  
  491.00  6.9496E-002  
  491.50  7.0355E-002  
  492.00  7.1223E-002  
  492.50  7.2020E-002  
  493.00  7.2961E-002  
  493.50  7.4051E-002  
  494.00  7.5150E-002  
  494.50  7.6326E-002  
  495.00  7.7465E-002  
  495.50  7.8656E-002  
  496.00  7.9864E-002  
  496.50  8.0924E-002  
  497.00  8.1936E-002  
  497.50  8.3091E-002  
  498.00  8.4281E-002  
  498.50  8.5564E-002  
  499.00  8.6775E-002  
  499.50  8.7900E-002  
  500.00  8.9079E-002  
  500.50  9.0194E-002  
  501.00  9.1289E-002  
  501.50  9.2527E-002  
  502.00  9.3756E-002  
  502.50  9.5013E-002  
  503.00  9.6247E-002  
  503.50  9.7295E-002  
  504.00  9.8416E-002  
  504.50  9.9517E-002  
  505.00  1.0062E-001  
  505.50  1.0166E-001  
  506.00  1.0248E-001  
  506.50  1.0331E-001  
  507.00  1.0418E-001  
  507.50  1.0516E-001  
  508.00  1.0622E-001  
  508.50  1.0708E-001  
  509.00  1.0791E-001  
  509.50  1.0865E-001  
  510.00  1.0948E-001  
  510.50  1.1033E-001  
  511.00  1.1126E-001  
  511.50  1.1206E-001  
  512.00  1.1286E-001  
  512.50  1.1360E-001  
  513.00  1.1424E-001  
  513.50  1.1479E-001  
  514.00  1.1529E-001  
  514.50  1.1589E-001  
  515.00  1.1650E-001  
  515.50  1.1709E-001  
  516.00  1.1761E-001  
  516.50  1.1816E-001  
  517.00  1.1871E-001  
  517.50  1.1918E-001  
  518.00  1.1961E-001  
  518.50  1.2021E-001  
  519.00  1.2080E-001  
  519.50  1.2145E-001  
  520.00  1.2192E-001  
  520.50  1.2236E-001  
  521.00  1.2280E-001  
  521.50  1.2315E-001  
  522.00  1.2340E-001  
  522.50  1.2373E-001  
  523.00  1.2430E-001  
  523.50  1.2502E-001  
  524.00  1.2558E-001  
  524.50  1.2603E-001  
  525.00  1.2652E-001  
  525.50  1.2714E-001  
  526.00  1.2770E-001  
  526.50  1.2817E-001  
  527.00  1.2867E-001  
  527.50  1.2923E-001  
  528.00  1.2974E-001  
  528.50  1.3017E-001  
  529.00  1.3049E-001  
  529.50  1.3086E-001  
  530.00  1.3130E-001  
  530.50  1.3175E-001  
  531.00  1.3222E-001  
  531.50  1.3282E-001  
  532.00  1.3361E-001  
  532.50  1.3436E-001  
  533.00  1.3498E-001  
  533.50  1.3545E-001  
  534.00  1.3605E-001  
  534.50  1.3670E-001  
  535.00  1.3728E-001  
  535.50  1.3788E-001  
  536.00  1.3848E-001  
  536.50  1.3914E-001  
  537.00  1.3969E-001  
  537.50  1.4022E-001  
  538.00  1.4087E-001  
  538.50  1.4156E-001  
  539.00  1.4223E-001  
  539.50  1.4283E-001  
  540.00  1.4350E-001  
  540.50  1.4419E-001  
  541.00  1.4493E-001  
  541.50  1.4563E-001  
  542.00  1.4626E-001  
  542.50  1.4693E-001  
  543.00  1.4755E-001  
  543.50  1.4816E-001  
  544.00  1.4870E-001  
  544.50  1.4935E-001  
  545.00  1.5006E-001  
  545.50  1.5087E-001  
  546.00  1.5158E-001  
  546.50  1.5227E-001  
  547.00  1.5303E-001  
  547.50  1.5385E-001  
  548.00  1.5459E-001  
  548.50  1.5536E-001  
  549.00  1.5608E-001  
  549.50  1.5692E-001  
  550.00  1.5761E-001  
  550.50  1.5841E-001  
  551.00  1.5912E-001  
  551.50  1.5994E-001  
  552.00  1.6068E-001  
  552.50  1.6143E-001  
  553.00  1.6220E-001  
  553.50  1.6300E-001  
  554.00  1.6385E-001  
  554.50  1.6472E-001  
  555.00  1.6556E-001  
  555.50  1.6633E-001  
  556.00  1.6712E-001  
  556.50  1.6805E-001  
  557.00  1.6893E-001  
  557.50  1.6981E-001  
  558.00  1.7061E-001  
  558.50  1.7139E-001  
  559.00  1.7195E-001  
  559.50  1.7255E-001  
  560.00  1.7312E-001  
  560.50  1.7374E-001  
  561.00  1.7442E-001  
  561.50  1.7503E-001  
  562.00  1.7566E-001  
  562.50  1.7607E-001  
  563.00  1.7653E-001  
  563.50  1.7704E-001  
  564.00  1.7775E-001  
  564.50  1.7838E-001  
  565.00  1.7897E-001  
  565.50  1.7947E-001  
  566.00  1.7998E-001  
  566.50  1.8048E-001  
  567.00  1.8111E-001  
  567.50  1.8161E-001  
  568.00  1.8213E-001  
  568.50  1.8263E-001  
  569.00  1.8320E-001  
  569.50  1.8390E-001  
  570.00  1.8446E-001  
  570.50  1.8506E-001  
  571.00  1.8564E-001  
  571.50  1.8630E-001  
  572.00  1.8698E-001  
  572.50  1.8753E-001  
  573.00  1.8811E-001  
  573.50  1.8862E-001  
  574.00  1.8932E-001  
  574.50  1.8995E-001  
  575.00  1.9060E-001  
  575.50  1.9117E-001  
  576.00  1.9171E-001  
  576.50  1.9227E-001  
  577.00  1.9286E-001  
  577.50  1.9355E-001  
  578.00  1.9433E-001  
  578.50  1.9492E-001  
  579.00  1.9546E-001  
  579.50  1.9591E-001  
  580.00  1.9645E-001  
  580.50  1.9703E-001  
  581.00  1.9765E-001  
  581.50  1.9827E-001  
  582.00  1.9882E-001  
  582.50  1.9927E-001  
  583.00  1.9971E-001  
  583.50  2.0024E-001  
  584.00  2.0087E-001  
  584.50  2.0156E-001  
  585.00  2.0226E-001  
  585.50  2.0288E-001  
  586.00  2.0343E-001  
  586.50  2.0396E-001  
  587.00  2.0460E-001  
  587.50  2.0517E-001  
  588.00  2.0594E-001  
  588.50  2.0665E-001  
  589.00  2.0749E-001  
  589.50  2.0812E-001  
  590.00  2.0874E-001  
  590.50  2.0925E-001  
  591.00  2.0996E-001  
  591.50  2.1065E-001  
  592.00  2.1144E-001  
  592.50  2.1218E-001  
  593.00  2.1289E-001  
  593.50  2.1350E-001  
  594.00  2.1401E-001  
  594.50  2.1467E-001  
  595.00  2.1526E-001  
  595.50  2.1597E-001  
  596.00  2.1661E-001  
  596.50  2.1730E-001  
  597.00  2.1797E-001  
  597.50  2.1866E-001  
  598.00  2.1933E-001  
  598.50  2.1992E-001  
  599.00  2.2050E-001  
  599.50  2.2114E-001  
  600.00  2.2182E-001  
  600.50  2.2252E-001  
  601.00  2.2309E-001  
  601.50  2.2379E-001  
  602.00  2.2440E-001  
  602.50  2.2509E-001  
  603.00  2.2573E-001  
  603.50  2.2638E-001  
  604.00  2.2707E-001  
  604.50  2.2780E-001  
  605.00  2.2852E-001  
  605.50  2.2920E-001  
  606.00  2.2989E-001  
  606.50  2.3067E-001  
  607.00  2.3153E-001  
  607.50  2.3246E-001  
  608.00  2.3336E-001  
  608.50  2.3419E-001  
  609.00  2.3485E-001  
  609.50  2.3552E-001  
  610.00  2.3628E-001  
  610.50  2.3711E-001  
  611.00  2.3801E-001  
  611.50  2.3891E-001  
  612.00  2.3972E-001  
  612.50  2.4047E-001  
  613.00  2.4119E-001  
  613.50  2.4197E-001  
  614.00  2.4276E-001  
  614.50  2.4356E-001  
  615.00  2.4433E-001  
  615.50  2.4515E-001  
  616.00  2.4570E-001  
  616.50  2.4621E-001  
  617.00  2.4679E-001  
  617.50  2.4759E-001  
  618.00  2.4857E-001  
  618.50  2.4939E-001  
  619.00  2.5006E-001  
  619.50  2.5057E-001  
  620.00  2.5127E-001  
  620.50  2.5216E-001  
  621.00  2.5311E-001  
  621.50  2.5389E-001  
  622.00  2.5445E-001  
  622.50  2.5506E-001  
  623.00  2.5571E-001  
  623.50  2.5643E-001  
  624.00  2.5709E-001  
  624.50  2.5783E-001  
  625.00  2.5857E-001  
  625.50  2.5922E-001  
  626.00  2.5983E-001  
  626.50  2.6055E-001  
  627.00  2.6146E-001  
  627.50  2.6229E-001  
  628.00  2.6302E-001  
  628.50  2.6383E-001  
  629.00  2.6460E-001  
  629.50  2.6548E-001  
  630.00  2.6622E-001  
  630.50  2.6703E-001  
  631.00  2.6768E-001  
  631.50  2.6812E-001  
  632.00  2.6837E-001  
  632.50  2.6831E-001  
  633.00  2.6816E-001  
  633.50  2.6794E-001  
  634.00  2.6793E-001  
  634.50  2.6787E-001  
  635.00  2.6766E-001  
  635.50  2.6718E-001  
  636.00  2.6655E-001  
  636.50  2.6604E-001  
  637.00  2.6575E-001  
  637.50  2.6545E-001  
  638.00  2.6515E-001  
  638.50  2.6463E-001  
  639.00  2.6396E-001  
  639.50  2.6321E-001  
  640.00  2.6251E-001  
  640.50  2.6191E-001  
  641.00  2.6112E-001  
  641.50  2.6033E-001  
  642.00  2.5957E-001  
  642.50  2.5893E-001  
  643.00  2.5818E-001  
  643.50  2.5746E-001  
  644.00  2.5663E-001  
  644.50  2.5555E-001  
  645.00  2.5424E-001  
  645.50  2.5312E-001  
  646.00  2.5207E-001  
  646.50  2.5103E-001  
  647.00  2.4978E-001  
  647.50  2.4851E-001  
  648.00  2.4701E-001  
  648.50  2.4535E-001  
  649.00  2.4357E-001  
  649.50  2.4187E-001  
  650.00  2.3997E-001  
  650.50  2.3800E-001  
  651.00  2.3597E-001  
  651.50  2.3387E-001  
  652.00  2.3185E-001  
  652.50  2.2984E-001  
  653.00  2.2767E-001  
  653.50  2.2530E-001  
  654.00  2.2299E-001  
  654.50  2.2093E-001  
  655.00  2.1863E-001  
  655.50  2.1607E-001  
  656.00  2.1348E-001  
  656.50  2.1122E-001  
  657.00  2.0881E-001  
  657.50  2.0650E-001  
  658.00  2.0397E-001  
  658.50  2.0155E-001  
  659.00  1.9884E-001  
  659.50  1.9635E-001  
  660.00  1.9375E-001  
  660.50  1.9112E-001  
  661.00  1.8855E-001  
  661.50  1.8618E-001  
  662.00  1.8382E-001  
  662.50  1.8134E-001  
  663.00  1.7892E-001  
  663.50  1.7652E-001  
  664.00  1.7406E-001  
  664.50  1.7147E-001  
  665.00  1.6918E-001  
  665.50  1.6677E-001  
  666.00  1.6439E-001  
  666.50  1.6181E-001  
  667.00  1.5951E-001  
  667.50  1.5740E-001  
  668.00  1.5542E-001  
  668.50  1.5350E-001  
  669.00  1.5138E-001  
  669.50  1.4890E-001  
  670.00  1.4648E-001  
  670.50  1.4413E-001  
  671.00  1.4220E-001  
  671.50  1.4012E-001  
  672.00  1.3797E-001  
  672.50  1.3583E-001  
  673.00  1.3366E-001  
  673.50  1.3154E-001  
  674.00  1.2956E-001  
  674.50  1.2771E-001  
  675.00  1.2598E-001  
  675.50  1.2407E-001  
  676.00  1.2209E-001  
  676.50  1.2007E-001  
  677.00  1.1809E-001  
  677.50  1.1621E-001  
  678.00  1.1441E-001  
  678.50  1.1257E-001  
  679.00  1.1075E-001  
  679.50  1.0898E-001  
  680.00  1.0743E-001  
  680.50  1.0573E-001  
  681.00  1.0403E-001  
  681.50  1.0222E-001  
  682.00  1.0070E-001  
  682.50  9.9253E-002  
  683.00  9.7618E-002  
  683.50  9.5871E-002  
  684.00  9.4074E-002  
  684.50  9.2517E-002  
  685.00  9.0926E-002  
  685.50  8.9454E-002  
  686.00  8.7937E-002  
  686.50  8.6662E-002  
  687.00  8.5314E-002  
  687.50  8.3906E-002  
  688.00  8.2425E-002  
  688.50  8.0896E-002  
  689.00  7.9704E-002  
  689.50  7.8475E-002  
  690.00  7.7424E-002  
  690.50  7.6115E-002  
  691.00  7.4793E-002  
  691.50  7.3398E-002  
  692.00  7.2246E-002  
  692.50  7.1116E-002  
  693.00  7.0108E-002  
  693.50  6.9171E-002  
  694.00  6.8167E-002  
  694.50  6.6916E-002  
  695.00  6.5513E-002  
  695.50  6.4262E-002  
  696.00  6.3165E-002  
  696.50  6.2153E-002  
  697.00  6.1133E-002  
  697.50  6.0115E-002  
  698.00  5.9029E-002  
  698.50  5.8014E-002  
  699.00  5.6967E-002  
  699.50  5.5857E-002  
  700.00  5.4979E-002  
  700.50  5.4126E-002  
  701.00  5.3344E-002  
  701.50  5.2237E-002  
  702.00  5.1292E-002  
  702.50  5.0393E-002  
  703.00  4.9595E-002  
  703.50  4.8654E-002  
  704.00  4.7814E-002  
  704.50  4.7028E-002  
  705.00  4.6428E-002  
  705.50  4.5738E-002  
  706.00  4.4845E-002  
  706.50  4.3874E-002  
  707.00  4.3024E-002  
  707.50  4.2316E-002  
  708.00  4.1761E-002  
  708.50  4.1173E-002  
  709.00  4.0586E-002  
  709.50  3.9770E-002  
  710.00  3.8965E-002  
  710.50  3.8288E-002  
  711.00  3.7680E-002  
  711.50  3.6917E-002  
  712.00  3.6153E-002  
  712.50  3.5523E-002  
  713.00  3.4942E-002  
  713.50  3.4332E-002  
  714.00  3.3700E-002  
  714.50  3.3144E-002  
  715.00  3.2483E-002  
  715.50  3.1831E-002  
  716.00  3.1132E-002  
  716.50  3.0562E-002  
  717.00  3.0129E-002  
  717.50  2.9827E-002  
  718.00  2.9421E-002  
  718.50  2.8943E-002  
  719.00  2.8392E-002  
  719.50  2.7968E-002  
  720.00  2.7372E-002  
  720.50  2.6728E-002  
  721.00  2.6208E-002  
  721.50  2.5786E-002  
  722.00  2.5257E-002  
  722.50  2.4615E-002  
  723.00  2.4230E-002  
  723.50  2.3985E-002  
  724.00  2.3606E-002  
  724.50  2.2980E-002  
  725.00  2.2485E-002  
  725.50  2.2198E-002  
  726.00  2.1999E-002  
  726.50  2.1678E-002  
  727.00  2.1340E-002  
  727.50  2.1040E-002  
  728.00  2.0659E-002  
  728.50  2.0243E-002  
  729.00  1.9865E-002  
  729.50  1.9588E-002  
  730.00  1.9356E-002  
  730.50  1.8961E-002  
  731.00  1.8434E-002  
  731.50  1.8072E-002  
  732.00  1.7912E-002  
  732.50  1.7814E-002  
  733.00  1.7466E-002  
  733.50  1.7276E-002  
  734.00  1.7121E-002  
  734.50  1.6949E-002  
  735.00  1.6407E-002  
  735.50  1.5873E-002  
  736.00  1.5488E-002  
  736.50  1.5347E-002  
  737.00  1.5269E-002  
  737.50  1.5140E-002  
  738.00  1.4982E-002  
  738.50  1.4978E-002  
  739.00  1.4812E-002  
  739.50  1.4564E-002  
  740.00  1.4092E-002  
  740.50  1.3962E-002  
  741.00  1.3724E-002  
  741.50  1.3497E-002  
  742.00  1.3296E-002  
  742.50  1.3213E-002  
  743.00  1.3237E-002  
  743.50  1.2992E-002  
  744.00  1.2679E-002  
  744.50  1.2327E-002  
  745.00  1.2160E-002  
  745.50  1.2009E-002  
  746.00  1.1863E-002  
  746.50  1.1704E-002  
  747.00  1.1577E-002  
  747.50  1.1512E-002  
  748.00  1.1430E-002  
  748.50  1.1237E-002  
  749.00  1.0959E-002  
  749.50  1.0801E-002  
  750.00  1.0731E-002  
  750.50  1.0654E-002  
  751.00  1.0472E-002  
  751.50  1.0370E-002  
  752.00  1.0251E-002  
  752.50  1.0102E-002  
  753.00  9.9137E-003  
  753.50  9.7735E-003  
  754.00  9.6102E-003  
  754.50  9.4708E-003  
  755.00  9.2958E-003  
  755.50  9.1779E-003  
  756.00  9.1147E-003  
  756.50  8.9458E-003  
  757.00  8.9090E-003  
  757.50  8.9562E-003  
  758.00  8.9221E-003  
  758.50  8.7490E-003  
  759.00  8.5868E-003  
  759.50  8.5694E-003  
  760.00  8.3713E-003  
  760.50  8.2008E-003  
  761.00  7.9683E-003  
  761.50  7.8979E-003  
  762.00  7.7575E-003  
  762.50  7.6819E-003  
  763.00  7.6117E-003  
  763.50  7.5195E-003  
  764.00  7.4683E-003  
  764.50  7.3461E-003  
  765.00  7.2036E-003  
  765.50  7.0690E-003  
  766.00  6.9388E-003  
  766.50  6.7266E-003  
  767.00  6.6103E-003  
  767.50  6.6788E-003  
  768.00  6.7578E-003  
  768.50  6.7192E-003  
  769.00  6.6118E-003  
  769.50  6.4618E-003  
  770.00  6.3798E-003  
  770.50  6.3426E-003  
  771.00  6.2114E-003  
  771.50  6.1439E-003  
  772.00  6.0329E-003  
  772.50  5.7713E-003  
  773.00  5.5583E-003  
  773.50  5.4797E-003  
  774.00  5.3586E-003  
  774.50  5.1324E-003  
  775.00  5.0764E-003  
  775.50  5.1726E-003  
  776.00  5.1689E-003  
  776.50  5.1940E-003  
  777.00  5.0571E-003  
  777.50  4.9645E-003  
  778.00  4.8244E-003  
  778.50  4.7867E-003  
  779.00  4.7173E-003  
  779.50  4.5766E-003  
  780.00  4.4521E-003  
  780.50  4.5396E-003  
  781.00  4.7253E-003  
  781.50  4.7147E-003  
  782.00  4.5186E-003  
  782.50  4.3032E-003  
  783.00  4.4599E-003  
  783.50  4.4546E-003  
  784.00  4.1758E-003  
  784.50  3.9558E-003  
  785.00  4.0417E-003  
  785.50  4.3363E-003  
  786.00  4.2656E-003  
  786.50  3.9499E-003  
  787.00  3.6538E-003  
  787.50  3.7497E-003  
  788.00  3.8092E-003  
  788.50  3.5560E-003  
  789.00  3.2176E-003  
  789.50  3.0962E-003  
  790.00  3.2301E-003  
  790.50  3.4470E-003  
  791.00  3.5546E-003  
  791.50  3.5149E-003  
  792.00  3.4258E-003  
  792.50  3.3363E-003  
  793.00  3.1383E-003  
  793.50  3.0112E-003  
  794.00  2.9803E-003  
  794.50  2.8918E-003  
  795.00  2.6711E-003  
  795.50  2.6980E-003  
  796.00  3.1619E-003  
  796.50  3.3286E-003  
  797.00  3.1644E-003  
  797.50  3.0371E-003  
  798.00  2.9836E-003  
  798.50  2.9309E-003  
  799.00  2.7798E-003  
  799.50  2.7988E-003  
  800.00  2.7023E-003  
  800.50  2.5789E-003  
  801.00  2.3051E-003  
  801.50  2.3123E-003  
  802.00  2.4170E-003  
  802.50  2.4707E-003  
  803.00  2.2728E-003  
  803.50  2.1997E-003  
  804.00  2.2747E-003  
  804.50  2.4756E-003  
  805.00  2.3956E-003  
  805.50  2.2436E-003  
  806.00  1.9939E-003  
  806.50  1.9404E-003  
  807.00  2.2048E-003  
  807.50  2.5472E-003  
  808.00  2.6092E-003  
  808.50  2.3592E-003  
  809.00  2.0904E-003  
  809.50  1.8363E-003  
  810.00  1.8770E-003  
  810.50  2.0947E-003  
  811.00  2.1123E-003  
  811.50  2.1000E-003  
  812.00  2.1060E-003  
  812.50  2.2131E-003  
  813.00  2.2271E-003  
  813.50  2.1745E-003  
  814.00  2.1698E-003  
  814.50  2.0010E-003  
  815.00  1.8727E-003  
  815.50  1.7154E-003  
  816.00  1.8717E-003  
  816.50  1.9666E-003  
  817.00  2.1148E-003  
  817.50  2.3221E-003  
  818.00  2.1743E-003  
  818.50  2.0243E-003  
  819.00  1.6976E-003  
  819.50  1.7218E-003  
  820.00  1.7826E-003  
  820.50  1.6327E-003  
  821.00  1.5141E-003  
  821.50  1.6353E-003  
  822.00  1.8652E-003  
  822.50  1.7605E-003  
  823.00  1.7751E-003  
  823.50  1.5825E-003  
  824.00  1.7657E-003  
  824.50  1.7657E-003  
  825.00  1.6321E-003  
  825.50  1.4612E-003  
  826.00  1.4519E-003  
  826.50  1.3923E-003  
  827.00  1.3649E-003  
  827.50  1.2098E-003  
  828.00  1.1510E-003  
  828.50  1.1270E-003  
  829.00  1.2852E-003  
  829.50  1.2557E-003  
  830.00  1.4405E-003  
  830.50  1.5769E-003  
  831.00  1.3204E-003  
  831.50  1.0386E-003  
  832.00  1.1707E-003  
  832.50  1.2291E-003  
  833.00  1.1634E-003  
  833.50  1.0361E-003  
  834.00  1.0631E-003  
  834.50  1.3451E-003  
  835.00  1.3536E-003  
  835.50  1.4049E-003  
  836.00  1.6306E-003  
  836.50  1.6691E-003  
  837.00  1.8006E-003  
  837.50  1.9041E-003  
  838.00  1.7104E-003  
  838.50  8.8156E-004  
  839.00  3.1226E-004  
  839.50  2.9366E-004  
  840.00  7.7017E-004  
  840.50  1.0640E-003  
  841.00  1.0481E-003  
  841.50  1.2223E-003  
  842.00  1.3415E-003  
  842.50  9.7671E-004  
  843.00  5.1993E-004  
  843.50  7.9568E-004  
  844.00  1.1845E-003  
  844.50  7.1091E-004  
  845.00  4.9508E-004  
  845.50  5.7638E-004  
  846.00  7.9777E-004  
  846.50  9.8230E-004  
  847.00  9.2650E-004  
  847.50  1.2247E-003  
  848.00  1.3151E-003  
  848.50  9.5017E-004  
  849.00  3.5385E-004  
  849.50  4.6310E-004  
  850.00  8.1882E-004  
  850.50  1.1647E-003  
  851.00  1.0941E-003  
  851.50  1.2870E-003  
  852.00  1.4549E-003  
  852.50  1.3227E-003  
  853.00  1.1358E-003  
  853.50  7.4222E-004  
  854.00  7.3591E-004  
  854.50  9.4513E-004  
  855.00  1.1368E-003  
  855.50  1.3043E-003  
  856.00  1.3171E-003  
  856.50  1.0853E-003  
  857.00  9.8131E-004  
  857.50  1.2752E-003  
  858.00  8.0763E-004  
  858.50  3.0653E-004  
  859.00  5.8977E-004  
  859.50  8.7313E-004  
  860.00  8.3554E-004  
  860.50  5.4774E-004  
  861.00  3.6953E-004  
  861.50  4.2971E-004  
  862.00  6.4579E-004  
  862.50  9.2986E-004  
  863.00  1.0818E-003  
  863.50  1.0665E-003  
  864.00  6.1608E-004  
  864.50  2.3727E-004  
  865.00  0.0000E+000  
  865.50  7.0303E-005  
  866.00  3.4592E-004  
  866.50  6.0831E-004  
  867.00  7.9525E-004  
  867.50  1.2409E-003  
  868.00  9.8293E-004  
  868.50  6.5134E-004  
  869.00  4.0356E-004  
  869.50  6.3988E-004  
  870.00  4.7488E-004  
  870.50  2.1605E-004  
  871.00  2.2342E-004  
  871.50  9.5508E-004  
  872.00  1.3845E-003  
  872.50  8.4312E-004  
  873.00  2.5612E-004  
  873.50  2.7424E-004  
  874.00  6.2942E-004  
  874.50  5.3547E-004  
  875.00  7.9839E-004  
  875.50  1.2145E-003  
  876.00  7.5909E-004  
  876.50  4.5103E-005  
  877.00  6.8285E-004  
  877.50  1.7143E-003  
  878.00  1.8859E-003  
  878.50  1.5028E-003  
  879.00  5.6701E-004  
  879.50  0.0000E+000  
  880.00  1.1269E-006  
  880.50  5.9625E-004  
  881.00  1.1580E-003  
  881.50  1.1706E-003  
  882.00  9.1073E-004  
  882.50  9.8752E-004  
  883.00  7.8918E-004  
  883.50  6.2152E-004  
  884.00  1.2924E-003  
  884.50  2.0844E-003  
  885.00  1.3507E-003  
  885.50  3.6876E-004  
  886.00  1.3600E-004  
  886.50  2.0059E-006  
  887.00  3.1918E-005  
  887.50  8.5888E-004  
  888.00  1.3907E-003  
  888.50  1.2367E-003  
  889.00  1.6415E-003  
  889.50  1.7880E-003  
  890.00  1.4474E-003  
  890.50  1.0566E-003  
  891.00  9.1785E-004  
  891.50  9.9328E-004  
  892.00  1.9296E-003  
  892.50  2.1665E-003  
  893.00  1.5422E-003  
  893.50  8.0866E-004  
  894.00  1.1992E-003  
  894.50  1.8085E-003  
  895.00  2.1059E-003  
  895.50  1.9014E-003  
  896.00  1.5482E-003  
  896.50  1.7702E-003  
  897.00  2.1349E-003  
  897.50  2.3609E-003  
  898.00  2.1346E-003  
  898.50  1.6485E-003  
  899.00  1.9777E-003  
  899.50  4.7732E-005  
