
# From lspdd.org
# 
# Name: DEL Dals 4002 Domestique
# Indice spectral Valeur 
# MSI 0.32 
# SLI 0.54 
# IPI 0.70 
# Pourcentage de bleu 19.9 
# Caractéristique Valeur 
# CCT calculée (K) 2885 
# CCT du fabricant (K) 3000 
# Tension (V) 12 
# Puissance (W) 1.8 
# Efficacité lumineuse (Lum/W) 84.0 
#
# Image: '/app/system/img_1s/2712/medium_image1.JPG?1464613412'
# 

  273.00  0.0000E+000  
  273.50  0.0000E+000  
  274.00  0.0000E+000  
  274.50  0.0000E+000  
  275.00  0.0000E+000  
  275.50  0.0000E+000  
  276.00  0.0000E+000  
  276.50  0.0000E+000  
  277.00  0.0000E+000  
  277.50  0.0000E+000  
  278.00  0.0000E+000  
  278.50  0.0000E+000  
  279.00  0.0000E+000  
  279.50  0.0000E+000  
  280.00  0.0000E+000  
  280.50  0.0000E+000  
  281.00  0.0000E+000  
  281.50  0.0000E+000  
  282.00  0.0000E+000  
  282.50  0.0000E+000  
  283.00  0.0000E+000  
  283.50  0.0000E+000  
  284.00  0.0000E+000  
  284.50  0.0000E+000  
  285.00  0.0000E+000  
  285.50  0.0000E+000  
  286.00  0.0000E+000  
  286.50  0.0000E+000  
  287.00  0.0000E+000  
  287.50  0.0000E+000  
  288.00  0.0000E+000  
  288.50  0.0000E+000  
  289.00  0.0000E+000  
  289.50  0.0000E+000  
  290.00  0.0000E+000  
  290.50  0.0000E+000  
  291.00  0.0000E+000  
  291.50  0.0000E+000  
  292.00  0.0000E+000  
  292.50  0.0000E+000  
  293.00  0.0000E+000  
  293.50  0.0000E+000  
  294.00  0.0000E+000  
  294.50  0.0000E+000  
  295.00  0.0000E+000  
  295.50  0.0000E+000  
  296.00  0.0000E+000  
  296.50  0.0000E+000  
  297.00  0.0000E+000  
  297.50  0.0000E+000  
  298.00  0.0000E+000  
  298.50  0.0000E+000  
  299.00  0.0000E+000  
  299.50  0.0000E+000  
  300.00  2.6162E-005  
  300.50  6.9067E-005  
  301.00  5.2861E-005  
  301.50  2.1714E-005  
  302.00  6.0959E-005  
  302.50  9.6860E-005  
  303.00  1.1675E-004  
  303.50  1.2595E-004  
  304.00  1.1072E-004  
  304.50  9.1125E-005  
  305.00  1.1780E-004  
  305.50  1.7528E-004  
  306.00  2.3067E-004  
  306.50  2.8821E-004  
  307.00  2.7094E-004  
  307.50  1.7572E-004  
  308.00  8.1831E-005  
  308.50  4.6059E-005  
  309.00  1.2263E-004  
  309.50  2.2190E-004  
  310.00  2.6072E-004  
  310.50  2.4218E-004  
  311.00  1.3565E-004  
  311.50  2.0377E-004  
  312.00  2.5517E-004  
  312.50  3.1266E-004  
  313.00  3.5225E-004  
  313.50  2.1365E-004  
  314.00  1.9166E-004  
  314.50  1.7010E-004  
  315.00  1.3758E-004  
  315.50  1.9066E-004  
  316.00  1.9157E-004  
  316.50  2.1153E-004  
  317.00  2.5395E-004  
  317.50  2.8187E-004  
  318.00  3.0729E-004  
  318.50  3.5324E-004  
  319.00  3.6153E-004  
  319.50  3.2474E-004  
  320.00  2.7926E-004  
  320.50  2.6818E-004  
  321.00  2.3443E-004  
  321.50  2.7011E-004  
  322.00  3.3212E-004  
  322.50  2.6869E-004  
  323.00  1.9387E-004  
  323.50  1.2383E-004  
  324.00  6.5894E-005  
  324.50  1.2427E-004  
  325.00  2.3250E-004  
  325.50  2.5308E-004  
  326.00  2.1465E-004  
  326.50  1.4379E-004  
  327.00  1.2848E-004  
  327.50  1.9236E-004  
  328.00  2.5902E-004  
  328.50  3.3696E-004  
  329.00  3.2925E-004  
  329.50  2.9638E-004  
  330.00  2.8990E-004  
  330.50  3.3332E-004  
  331.00  3.1227E-004  
  331.50  2.9634E-004  
  332.00  2.6981E-004  
  332.50  1.8073E-004  
  333.00  1.5924E-004  
  333.50  1.9270E-004  
  334.00  2.6058E-004  
  334.50  3.5459E-004  
  335.00  4.0557E-004  
  335.50  3.8410E-004  
  336.00  3.6354E-004  
  336.50  3.1622E-004  
  337.00  2.9889E-004  
  337.50  2.7392E-004  
  338.00  2.4505E-004  
  338.50  2.7526E-004  
  339.00  3.1176E-004  
  339.50  3.5591E-004  
  340.00  3.5730E-004  
  340.50  3.4381E-004  
  341.00  3.1497E-004  
  341.50  3.3998E-004  
  342.00  3.6409E-004  
  342.50  3.2736E-004  
  343.00  2.8605E-004  
  343.50  2.8597E-004  
  344.00  3.1352E-004  
  344.50  3.6524E-004  
  345.00  4.2195E-004  
  345.50  4.3725E-004  
  346.00  4.3605E-004  
  346.50  4.5004E-004  
  347.00  3.8640E-004  
  347.50  2.8795E-004  
  348.00  2.0532E-004  
  348.50  1.5164E-004  
  349.00  2.1624E-004  
  349.50  2.8871E-004  
  350.00  3.8024E-004  
  350.50  3.4597E-004  
  351.00  3.0637E-004  
  351.50  2.8398E-004  
  352.00  3.2709E-004  
  352.50  4.1307E-004  
  353.00  4.2107E-004  
  353.50  4.0800E-004  
  354.00  3.4905E-004  
  354.50  3.3953E-004  
  355.00  3.9520E-004  
  355.50  4.4861E-004  
  356.00  4.9528E-004  
  356.50  5.1388E-004  
  357.00  4.9803E-004  
  357.50  4.3172E-004  
  358.00  3.3939E-004  
  358.50  3.0139E-004  
  359.00  2.9171E-004  
  359.50  3.0277E-004  
  360.00  3.3064E-004  
  360.50  2.9229E-004  
  361.00  2.9096E-004  
  361.50  3.3406E-004  
  362.00  3.8497E-004  
  362.50  4.1552E-004  
  363.00  4.4174E-004  
  363.50  4.6501E-004  
  364.00  4.9672E-004  
  364.50  5.3986E-004  
  365.00  5.5312E-004  
  365.50  5.1653E-004  
  366.00  4.3940E-004  
  366.50  3.5190E-004  
  367.00  3.1381E-004  
  367.50  3.0807E-004  
  368.00  3.1442E-004  
  368.50  3.4653E-004  
  369.00  3.6491E-004  
  369.50  3.7429E-004  
  370.00  3.8094E-004  
  370.50  3.9207E-004  
  371.00  3.6749E-004  
  371.50  3.8743E-004  
  372.00  4.4347E-004  
  372.50  5.0138E-004  
  373.00  5.1555E-004  
  373.50  4.9067E-004  
  374.00  3.7414E-004  
  374.50  3.4714E-004  
  375.00  2.6852E-004  
  375.50  2.3423E-004  
  376.00  2.7617E-004  
  376.50  3.3968E-004  
  377.00  4.7381E-004  
  377.50  5.3797E-004  
  378.00  5.3358E-004  
  378.50  4.9357E-004  
  379.00  4.7129E-004  
  379.50  5.1388E-004  
  380.00  5.1721E-004  
  380.50  4.8137E-004  
  381.00  4.2863E-004  
  381.50  3.4681E-004  
  382.00  3.3984E-004  
  382.50  3.6091E-004  
  383.00  4.7155E-004  
  383.50  5.3787E-004  
  384.00  5.4413E-004  
  384.50  5.1382E-004  
  385.00  4.0242E-004  
  385.50  4.1639E-004  
  386.00  4.1040E-004  
  386.50  4.1731E-004  
  387.00  4.4673E-004  
  387.50  4.5232E-004  
  388.00  5.3051E-004  
  388.50  5.4442E-004  
  389.00  5.5257E-004  
  389.50  6.1853E-004  
  390.00  6.4645E-004  
  390.50  6.6477E-004  
  391.00  6.5396E-004  
  391.50  5.8477E-004  
  392.00  5.1734E-004  
  392.50  4.8752E-004  
  393.00  4.3841E-004  
  393.50  4.4540E-004  
  394.00  4.7577E-004  
  394.50  4.6466E-004  
  395.00  4.7048E-004  
  395.50  5.0595E-004  
  396.00  5.3285E-004  
  396.50  6.1731E-004  
  397.00  6.7664E-004  
  397.50  6.9022E-004  
  398.00  7.3691E-004  
  398.50  7.2440E-004  
  399.00  6.7178E-004  
  399.50  6.2138E-004  
  400.00  5.6383E-004  
  400.50  6.1823E-004  
  401.00  6.4271E-004  
  401.50  6.9964E-004  
  402.00  7.7696E-004  
  402.50  8.3027E-004  
  403.00  8.5942E-004  
  403.50  8.6497E-004  
  404.00  8.4814E-004  
  404.50  8.3526E-004  
  405.00  8.6860E-004  
  405.50  8.7687E-004  
  406.00  8.5115E-004  
  406.50  8.2762E-004  
  407.00  8.1098E-004  
  407.50  7.9146E-004  
  408.00  8.5785E-004  
  408.50  9.0829E-004  
  409.00  9.5213E-004  
  409.50  1.0082E-003  
  410.00  1.0287E-003  
  410.50  1.0519E-003  
  411.00  1.0472E-003  
  411.50  1.0810E-003  
  412.00  1.1872E-003  
  412.50  1.2904E-003  
  413.00  1.3648E-003  
  413.50  1.3866E-003  
  414.00  1.3887E-003  
  414.50  1.4193E-003  
  415.00  1.5314E-003  
  415.50  1.6077E-003  
  416.00  1.7252E-003  
  416.50  1.8431E-003  
  417.00  1.9855E-003  
  417.50  2.1199E-003  
  418.00  2.2108E-003  
  418.50  2.2643E-003  
  419.00  2.3248E-003  
  419.50  2.4479E-003  
  420.00  2.6152E-003  
  420.50  2.7774E-003  
  421.00  2.9104E-003  
  421.50  3.1074E-003  
  422.00  3.2928E-003  
  422.50  3.5057E-003  
  423.00  3.6985E-003  
  423.50  3.9784E-003  
  424.00  4.2886E-003  
  424.50  4.6687E-003  
  425.00  4.9908E-003  
  425.50  5.2061E-003  
  426.00  5.4792E-003  
  426.50  5.7561E-003  
  427.00  6.1242E-003  
  427.50  6.4793E-003  
  428.00  6.8418E-003  
  428.50  7.2571E-003  
  429.00  7.6813E-003  
  429.50  8.1746E-003  
  430.00  8.6245E-003  
  430.50  9.0726E-003  
  431.00  9.5571E-003  
  431.50  1.0113E-002  
  432.00  1.0655E-002  
  432.50  1.1301E-002  
  433.00  1.1956E-002  
  433.50  1.2651E-002  
  434.00  1.3288E-002  
  434.50  1.3914E-002  
  435.00  1.4538E-002  
  435.50  1.5243E-002  
  436.00  1.6161E-002  
  436.50  1.7173E-002  
  437.00  1.8225E-002  
  437.50  1.9285E-002  
  438.00  2.0288E-002  
  438.50  2.1452E-002  
  439.00  2.2731E-002  
  439.50  2.4180E-002  
  440.00  2.5698E-002  
  440.50  2.7221E-002  
  441.00  2.8884E-002  
  441.50  3.0588E-002  
  442.00  3.2535E-002  
  442.50  3.4538E-002  
  443.00  3.6672E-002  
  443.50  3.8944E-002  
  444.00  4.1398E-002  
  444.50  4.3998E-002  
  445.00  4.6735E-002  
  445.50  4.9679E-002  
  446.00  5.2482E-002  
  446.50  5.5480E-002  
  447.00  5.8694E-002  
  447.50  6.2099E-002  
  448.00  6.5472E-002  
  448.50  6.8579E-002  
  449.00  7.1521E-002  
  449.50  7.4703E-002  
  450.00  7.7662E-002  
  450.50  8.0505E-002  
  451.00  8.3009E-002  
  451.50  8.5352E-002  
  452.00  8.7901E-002  
  452.50  9.0424E-002  
  453.00  9.2837E-002  
  453.50  9.4819E-002  
  454.00  9.6309E-002  
  454.50  9.7365E-002  
  455.00  9.7950E-002  
  455.50  9.8530E-002  
  456.00  9.8937E-002  
  456.50  9.9123E-002  
  457.00  9.9175E-002  
  457.50  9.8570E-002  
  458.00  9.7853E-002  
  458.50  9.6891E-002  
  459.00  9.5787E-002  
  459.50  9.4540E-002  
  460.00  9.3190E-002  
  460.50  9.1522E-002  
  461.00  8.9791E-002  
  461.50  8.8093E-002  
  462.00  8.6338E-002  
  462.50  8.4710E-002  
  463.00  8.3113E-002  
  463.50  8.1279E-002  
  464.00  7.9679E-002  
  464.50  7.7910E-002  
  465.00  7.6307E-002  
  465.50  7.4793E-002  
  466.00  7.3429E-002  
  466.50  7.2167E-002  
  467.00  7.0950E-002  
  467.50  6.9891E-002  
  468.00  6.8968E-002  
  468.50  6.8164E-002  
  469.00  6.7327E-002  
  469.50  6.6520E-002  
  470.00  6.5887E-002  
  470.50  6.5263E-002  
  471.00  6.4489E-002  
  471.50  6.3561E-002  
  472.00  6.2734E-002  
  472.50  6.2039E-002  
  473.00  6.1311E-002  
  473.50  6.0511E-002  
  474.00  5.9616E-002  
  474.50  5.8878E-002  
  475.00  5.8086E-002  
  475.50  5.7180E-002  
  476.00  5.6195E-002  
  476.50  5.5313E-002  
  477.00  5.4581E-002  
  477.50  5.3832E-002  
  478.00  5.3179E-002  
  478.50  5.2510E-002  
  479.00  5.1838E-002  
  479.50  5.1149E-002  
  480.00  5.0513E-002  
  480.50  5.0056E-002  
  481.00  4.9731E-002  
  481.50  4.9449E-002  
  482.00  4.9097E-002  
  482.50  4.8720E-002  
  483.00  4.8441E-002  
  483.50  4.8251E-002  
  484.00  4.8174E-002  
  484.50  4.8140E-002  
  485.00  4.8127E-002  
  485.50  4.8147E-002  
  486.00  4.8161E-002  
  486.50  4.8330E-002  
  487.00  4.8515E-002  
  487.50  4.8683E-002  
  488.00  4.8865E-002  
  488.50  4.9035E-002  
  489.00  4.9355E-002  
  489.50  4.9716E-002  
  490.00  5.0086E-002  
  490.50  5.0362E-002  
  491.00  5.0721E-002  
  491.50  5.1071E-002  
  492.00  5.1492E-002  
  492.50  5.1848E-002  
  493.00  5.2198E-002  
  493.50  5.2650E-002  
  494.00  5.3136E-002  
  494.50  5.3580E-002  
  495.00  5.4065E-002  
  495.50  5.4535E-002  
  496.00  5.5049E-002  
  496.50  5.5574E-002  
  497.00  5.6128E-002  
  497.50  5.6823E-002  
  498.00  5.7481E-002  
  498.50  5.8089E-002  
  499.00  5.8665E-002  
  499.50  5.9284E-002  
  500.00  5.9973E-002  
  500.50  6.0672E-002  
  501.00  6.1372E-002  
  501.50  6.2093E-002  
  502.00  6.2856E-002  
  502.50  6.3615E-002  
  503.00  6.4408E-002  
  503.50  6.5039E-002  
  504.00  6.5633E-002  
  504.50  6.6265E-002  
  505.00  6.7020E-002  
  505.50  6.7844E-002  
  506.00  6.8505E-002  
  506.50  6.9135E-002  
  507.00  6.9779E-002  
  507.50  7.0534E-002  
  508.00  7.1341E-002  
  508.50  7.2102E-002  
  509.00  7.2752E-002  
  509.50  7.3353E-002  
  510.00  7.3993E-002  
  510.50  7.4750E-002  
  511.00  7.5638E-002  
  511.50  7.6437E-002  
  512.00  7.7133E-002  
  512.50  7.7735E-002  
  513.00  7.8335E-002  
  513.50  7.8826E-002  
  514.00  7.9307E-002  
  514.50  7.9839E-002  
  515.00  8.0468E-002  
  515.50  8.1148E-002  
  516.00  8.1740E-002  
  516.50  8.2363E-002  
  517.00  8.3013E-002  
  517.50  8.3683E-002  
  518.00  8.4388E-002  
  518.50  8.5172E-002  
  519.00  8.5960E-002  
  519.50  8.6686E-002  
  520.00  8.7320E-002  
  520.50  8.7872E-002  
  521.00  8.8567E-002  
  521.50  8.9184E-002  
  522.00  8.9771E-002  
  522.50  9.0289E-002  
  523.00  9.0852E-002  
  523.50  9.1601E-002  
  524.00  9.2428E-002  
  524.50  9.3277E-002  
  525.00  9.4143E-002  
  525.50  9.4869E-002  
  526.00  9.5532E-002  
  526.50  9.6163E-002  
  527.00  9.6850E-002  
  527.50  9.7681E-002  
  528.00  9.8492E-002  
  528.50  9.9263E-002  
  529.00  9.9934E-002  
  529.50  1.0057E-001  
  530.00  1.0126E-001  
  530.50  1.0201E-001  
  531.00  1.0279E-001  
  531.50  1.0372E-001  
  532.00  1.0463E-001  
  532.50  1.0550E-001  
  533.00  1.0630E-001  
  533.50  1.0714E-001  
  534.00  1.0806E-001  
  534.50  1.0900E-001  
  535.00  1.0987E-001  
  535.50  1.1075E-001  
  536.00  1.1168E-001  
  536.50  1.1248E-001  
  537.00  1.1325E-001  
  537.50  1.1387E-001  
  538.00  1.1463E-001  
  538.50  1.1549E-001  
  539.00  1.1636E-001  
  539.50  1.1718E-001  
  540.00  1.1807E-001  
  540.50  1.1900E-001  
  541.00  1.2001E-001  
  541.50  1.2096E-001  
  542.00  1.2178E-001  
  542.50  1.2255E-001  
  543.00  1.2325E-001  
  543.50  1.2397E-001  
  544.00  1.2477E-001  
  544.50  1.2559E-001  
  545.00  1.2643E-001  
  545.50  1.2731E-001  
  546.00  1.2813E-001  
  546.50  1.2890E-001  
  547.00  1.2964E-001  
  547.50  1.3043E-001  
  548.00  1.3117E-001  
  548.50  1.3198E-001  
  549.00  1.3283E-001  
  549.50  1.3373E-001  
  550.00  1.3454E-001  
  550.50  1.3543E-001  
  551.00  1.3621E-001  
  551.50  1.3701E-001  
  552.00  1.3766E-001  
  552.50  1.3834E-001  
  553.00  1.3911E-001  
  553.50  1.3992E-001  
  554.00  1.4078E-001  
  554.50  1.4156E-001  
  555.00  1.4229E-001  
  555.50  1.4291E-001  
  556.00  1.4356E-001  
  556.50  1.4427E-001  
  557.00  1.4500E-001  
  557.50  1.4582E-001  
  558.00  1.4664E-001  
  558.50  1.4750E-001  
  559.00  1.4824E-001  
  559.50  1.4895E-001  
  560.00  1.4971E-001  
  560.50  1.5036E-001  
  561.00  1.5110E-001  
  561.50  1.5180E-001  
  562.00  1.5245E-001  
  562.50  1.5314E-001  
  563.00  1.5378E-001  
  563.50  1.5456E-001  
  564.00  1.5535E-001  
  564.50  1.5599E-001  
  565.00  1.5661E-001  
  565.50  1.5719E-001  
  566.00  1.5788E-001  
  566.50  1.5866E-001  
  567.00  1.5941E-001  
  567.50  1.6011E-001  
  568.00  1.6068E-001  
  568.50  1.6124E-001  
  569.00  1.6191E-001  
  569.50  1.6266E-001  
  570.00  1.6336E-001  
  570.50  1.6402E-001  
  571.00  1.6462E-001  
  571.50  1.6528E-001  
  572.00  1.6599E-001  
  572.50  1.6663E-001  
  573.00  1.6735E-001  
  573.50  1.6803E-001  
  574.00  1.6873E-001  
  574.50  1.6931E-001  
  575.00  1.6990E-001  
  575.50  1.7050E-001  
  576.00  1.7118E-001  
  576.50  1.7192E-001  
  577.00  1.7266E-001  
  577.50  1.7340E-001  
  578.00  1.7409E-001  
  578.50  1.7476E-001  
  579.00  1.7534E-001  
  579.50  1.7587E-001  
  580.00  1.7640E-001  
  580.50  1.7701E-001  
  581.00  1.7774E-001  
  581.50  1.7838E-001  
  582.00  1.7898E-001  
  582.50  1.7941E-001  
  583.00  1.8000E-001  
  583.50  1.8057E-001  
  584.00  1.8118E-001  
  584.50  1.8177E-001  
  585.00  1.8246E-001  
  585.50  1.8311E-001  
  586.00  1.8385E-001  
  586.50  1.8439E-001  
  587.00  1.8500E-001  
  587.50  1.8560E-001  
  588.00  1.8616E-001  
  588.50  1.8676E-001  
  589.00  1.8739E-001  
  589.50  1.8797E-001  
  590.00  1.8859E-001  
  590.50  1.8917E-001  
  591.00  1.8988E-001  
  591.50  1.9068E-001  
  592.00  1.9137E-001  
  592.50  1.9197E-001  
  593.00  1.9252E-001  
  593.50  1.9288E-001  
  594.00  1.9331E-001  
  594.50  1.9376E-001  
  595.00  1.9430E-001  
  595.50  1.9491E-001  
  596.00  1.9543E-001  
  596.50  1.9593E-001  
  597.00  1.9623E-001  
  597.50  1.9667E-001  
  598.00  1.9718E-001  
  598.50  1.9771E-001  
  599.00  1.9814E-001  
  599.50  1.9839E-001  
  600.00  1.9871E-001  
  600.50  1.9913E-001  
  601.00  1.9958E-001  
  601.50  2.0004E-001  
  602.00  2.0035E-001  
  602.50  2.0074E-001  
  603.00  2.0109E-001  
  603.50  2.0133E-001  
  604.00  2.0164E-001  
  604.50  2.0196E-001  
  605.00  2.0236E-001  
  605.50  2.0259E-001  
  606.00  2.0285E-001  
  606.50  2.0340E-001  
  607.00  2.0398E-001  
  607.50  2.0449E-001  
  608.00  2.0468E-001  
  608.50  2.0479E-001  
  609.00  2.0491E-001  
  609.50  2.0513E-001  
  610.00  2.0549E-001  
  610.50  2.0570E-001  
  611.00  2.0587E-001  
  611.50  2.0604E-001  
  612.00  2.0622E-001  
  612.50  2.0636E-001  
  613.00  2.0646E-001  
  613.50  2.0664E-001  
  614.00  2.0682E-001  
  614.50  2.0688E-001  
  615.00  2.0674E-001  
  615.50  2.0676E-001  
  616.00  2.0681E-001  
  616.50  2.0691E-001  
  617.00  2.0667E-001  
  617.50  2.0636E-001  
  618.00  2.0605E-001  
  618.50  2.0610E-001  
  619.00  2.0599E-001  
  619.50  2.0577E-001  
  620.00  2.0537E-001  
  620.50  2.0515E-001  
  621.00  2.0517E-001  
  621.50  2.0504E-001  
  622.00  2.0481E-001  
  622.50  2.0439E-001  
  623.00  2.0395E-001  
  623.50  2.0355E-001  
  624.00  2.0311E-001  
  624.50  2.0271E-001  
  625.00  2.0227E-001  
  625.50  2.0171E-001  
  626.00  2.0121E-001  
  626.50  2.0069E-001  
  627.00  2.0040E-001  
  627.50  1.9991E-001  
  628.00  1.9934E-001  
  628.50  1.9867E-001  
  629.00  1.9808E-001  
  629.50  1.9747E-001  
  630.00  1.9697E-001  
  630.50  1.9629E-001  
  631.00  1.9563E-001  
  631.50  1.9491E-001  
  632.00  1.9413E-001  
  632.50  1.9318E-001  
  633.00  1.9213E-001  
  633.50  1.9130E-001  
  634.00  1.9063E-001  
  634.50  1.8986E-001  
  635.00  1.8883E-001  
  635.50  1.8765E-001  
  636.00  1.8642E-001  
  636.50  1.8536E-001  
  637.00  1.8448E-001  
  637.50  1.8368E-001  
  638.00  1.8294E-001  
  638.50  1.8203E-001  
  639.00  1.8093E-001  
  639.50  1.7957E-001  
  640.00  1.7843E-001  
  640.50  1.7731E-001  
  641.00  1.7632E-001  
  641.50  1.7508E-001  
  642.00  1.7386E-001  
  642.50  1.7276E-001  
  643.00  1.7166E-001  
  643.50  1.7059E-001  
  644.00  1.6961E-001  
  644.50  1.6850E-001  
  645.00  1.6731E-001  
  645.50  1.6592E-001  
  646.00  1.6464E-001  
  646.50  1.6355E-001  
  647.00  1.6241E-001  
  647.50  1.6120E-001  
  648.00  1.5994E-001  
  648.50  1.5870E-001  
  649.00  1.5743E-001  
  649.50  1.5613E-001  
  650.00  1.5470E-001  
  650.50  1.5348E-001  
  651.00  1.5214E-001  
  651.50  1.5063E-001  
  652.00  1.4908E-001  
  652.50  1.4756E-001  
  653.00  1.4621E-001  
  653.50  1.4479E-001  
  654.00  1.4347E-001  
  654.50  1.4230E-001  
  655.00  1.4100E-001  
  655.50  1.3969E-001  
  656.00  1.3840E-001  
  656.50  1.3725E-001  
  657.00  1.3581E-001  
  657.50  1.3442E-001  
  658.00  1.3320E-001  
  658.50  1.3205E-001  
  659.00  1.3064E-001  
  659.50  1.2911E-001  
  660.00  1.2780E-001  
  660.50  1.2661E-001  
  661.00  1.2539E-001  
  661.50  1.2407E-001  
  662.00  1.2252E-001  
  662.50  1.2111E-001  
  663.00  1.1982E-001  
  663.50  1.1856E-001  
  664.00  1.1710E-001  
  664.50  1.1551E-001  
  665.00  1.1419E-001  
  665.50  1.1300E-001  
  666.00  1.1164E-001  
  666.50  1.1038E-001  
  667.00  1.0931E-001  
  667.50  1.0849E-001  
  668.00  1.0735E-001  
  668.50  1.0606E-001  
  669.00  1.0454E-001  
  669.50  1.0319E-001  
  670.00  1.0174E-001  
  670.50  1.0058E-001  
  671.00  9.9606E-002  
  671.50  9.8545E-002  
  672.00  9.7361E-002  
  672.50  9.6026E-002  
  673.00  9.4888E-002  
  673.50  9.3576E-002  
  674.00  9.2225E-002  
  674.50  9.0994E-002  
  675.00  8.9927E-002  
  675.50  8.8948E-002  
  676.00  8.7709E-002  
  676.50  8.6425E-002  
  677.00  8.5114E-002  
  677.50  8.3963E-002  
  678.00  8.2890E-002  
  678.50  8.1870E-002  
  679.00  8.0833E-002  
  679.50  7.9926E-002  
  680.00  7.8906E-002  
  680.50  7.7940E-002  
  681.00  7.6761E-002  
  681.50  7.5541E-002  
  682.00  7.4239E-002  
  682.50  7.3155E-002  
  683.00  7.2101E-002  
  683.50  7.1213E-002  
  684.00  7.0311E-002  
  684.50  6.9459E-002  
  685.00  6.8636E-002  
  685.50  6.7787E-002  
  686.00  6.7041E-002  
  686.50  6.6107E-002  
  687.00  6.5209E-002  
  687.50  6.4259E-002  
  688.00  6.3322E-002  
  688.50  6.2255E-002  
  689.00  6.1070E-002  
  689.50  5.9995E-002  
  690.00  5.9250E-002  
  690.50  5.8637E-002  
  691.00  5.7892E-002  
  691.50  5.7020E-002  
  692.00  5.6229E-002  
  692.50  5.5413E-002  
  693.00  5.4652E-002  
  693.50  5.3973E-002  
  694.00  5.3277E-002  
  694.50  5.2300E-002  
  695.00  5.1439E-002  
  695.50  5.0824E-002  
  696.00  5.0294E-002  
  696.50  4.9553E-002  
  697.00  4.8681E-002  
  697.50  4.8004E-002  
  698.00  4.7304E-002  
  698.50  4.6649E-002  
  699.00  4.5898E-002  
  699.50  4.5209E-002  
  700.00  4.4537E-002  
  700.50  4.3808E-002  
  701.00  4.3154E-002  
  701.50  4.2406E-002  
  702.00  4.1757E-002  
  702.50  4.1112E-002  
  703.00  4.0591E-002  
  703.50  4.0123E-002  
  704.00  3.9725E-002  
  704.50  3.9262E-002  
  705.00  3.8789E-002  
  705.50  3.8143E-002  
  706.00  3.7517E-002  
  706.50  3.6831E-002  
  707.00  3.6267E-002  
  707.50  3.5836E-002  
  708.00  3.5367E-002  
  708.50  3.4684E-002  
  709.00  3.4036E-002  
  709.50  3.3583E-002  
  710.00  3.3142E-002  
  710.50  3.2617E-002  
  711.00  3.2047E-002  
  711.50  3.1612E-002  
  712.00  3.1101E-002  
  712.50  3.0636E-002  
  713.00  3.0188E-002  
  713.50  2.9795E-002  
  714.00  2.9340E-002  
  714.50  2.8850E-002  
  715.00  2.8332E-002  
  715.50  2.7820E-002  
  716.00  2.7301E-002  
  716.50  2.6810E-002  
  717.00  2.6265E-002  
  717.50  2.5882E-002  
  718.00  2.5725E-002  
  718.50  2.5598E-002  
  719.00  2.5219E-002  
  719.50  2.4866E-002  
  720.00  2.4545E-002  
  720.50  2.4245E-002  
  721.00  2.3762E-002  
  721.50  2.3278E-002  
  722.00  2.2766E-002  
  722.50  2.2338E-002  
  723.00  2.2032E-002  
  723.50  2.1902E-002  
  724.00  2.1669E-002  
  724.50  2.1287E-002  
  725.00  2.0829E-002  
  725.50  2.0450E-002  
  726.00  2.0148E-002  
  726.50  1.9801E-002  
  727.00  1.9464E-002  
  727.50  1.9147E-002  
  728.00  1.8806E-002  
  728.50  1.8630E-002  
  729.00  1.8516E-002  
  729.50  1.8254E-002  
  730.00  1.7822E-002  
  730.50  1.7381E-002  
  731.00  1.7153E-002  
  731.50  1.7019E-002  
  732.00  1.6945E-002  
  732.50  1.6698E-002  
  733.00  1.6280E-002  
  733.50  1.5922E-002  
  734.00  1.5740E-002  
  734.50  1.5649E-002  
  735.00  1.5486E-002  
  735.50  1.5106E-002  
  736.00  1.4615E-002  
  736.50  1.4273E-002  
  737.00  1.4074E-002  
  737.50  1.3846E-002  
  738.00  1.3598E-002  
  738.50  1.3495E-002  
  739.00  1.3531E-002  
  739.50  1.3543E-002  
  740.00  1.3398E-002  
  740.50  1.3130E-002  
  741.00  1.2836E-002  
  741.50  1.2557E-002  
  742.00  1.2250E-002  
  742.50  1.1894E-002  
  743.00  1.1727E-002  
  743.50  1.1581E-002  
  744.00  1.1547E-002  
  744.50  1.1398E-002  
  745.00  1.1354E-002  
  745.50  1.1127E-002  
  746.00  1.0888E-002  
  746.50  1.0684E-002  
  747.00  1.0530E-002  
  747.50  1.0481E-002  
  748.00  1.0237E-002  
  748.50  1.0019E-002  
  749.00  9.7246E-003  
  749.50  9.6487E-003  
  750.00  9.6216E-003  
  750.50  9.2636E-003  
  751.00  8.7352E-003  
  751.50  8.4957E-003  
  752.00  8.7244E-003  
  752.50  8.9212E-003  
  753.00  8.8833E-003  
  753.50  8.8993E-003  
  754.00  8.6916E-003  
  754.50  8.4923E-003  
  755.00  8.1969E-003  
  755.50  7.9993E-003  
  756.00  8.0331E-003  
  756.50  8.0027E-003  
  757.00  7.8166E-003  
  757.50  7.6003E-003  
  758.00  7.5483E-003  
  758.50  7.4298E-003  
  759.00  7.2555E-003  
  759.50  7.1646E-003  
  760.00  7.1200E-003  
  760.50  7.1024E-003  
  761.00  6.9821E-003  
  761.50  6.9309E-003  
  762.00  6.8399E-003  
  762.50  6.9192E-003  
  763.00  6.9379E-003  
  763.50  6.9242E-003  
  764.00  6.8891E-003  
  764.50  6.6510E-003  
  765.00  6.3626E-003  
  765.50  6.1590E-003  
  766.00  6.0855E-003  
  766.50  5.9369E-003  
  767.00  5.8466E-003  
  767.50  5.9021E-003  
  768.00  5.9313E-003  
  768.50  5.8762E-003  
  769.00  5.6995E-003  
  769.50  5.4765E-003  
  770.00  5.2749E-003  
  770.50  5.2171E-003  
  771.00  5.1908E-003  
  771.50  5.1659E-003  
  772.00  5.0082E-003  
  772.50  4.7961E-003  
  773.00  4.6717E-003  
  773.50  4.6570E-003  
  774.00  4.6547E-003  
  774.50  4.5978E-003  
  775.00  4.5728E-003  
  775.50  4.5105E-003  
  776.00  4.4280E-003  
  776.50  4.3829E-003  
  777.00  4.2827E-003  
  777.50  4.3641E-003  
  778.00  4.3789E-003  
  778.50  4.3072E-003  
  779.00  4.1521E-003  
  779.50  3.9856E-003  
  780.00  3.8131E-003  
  780.50  3.8405E-003  
  781.00  3.9251E-003  
  781.50  4.0578E-003  
  782.00  4.0618E-003  
  782.50  3.9919E-003  
  783.00  4.0287E-003  
  783.50  3.9265E-003  
  784.00  3.6974E-003  
  784.50  3.4094E-003  
  785.00  3.3979E-003  
  785.50  3.4216E-003  
  786.00  3.2224E-003  
  786.50  3.0600E-003  
  787.00  3.0003E-003  
  787.50  3.1774E-003  
  788.00  3.1686E-003  
  788.50  3.0638E-003  
  789.00  2.9154E-003  
  789.50  2.9581E-003  
  790.00  2.9829E-003  
  790.50  3.0405E-003  
  791.00  3.1486E-003  
  791.50  3.2523E-003  
  792.00  3.2477E-003  
  792.50  2.9887E-003  
  793.00  2.6468E-003  
  793.50  2.4412E-003  
  794.00  2.4819E-003  
  794.50  2.5550E-003  
  795.00  2.4274E-003  
  795.50  2.2895E-003  
  796.00  2.5913E-003  
  796.50  2.7991E-003  
  797.00  2.7525E-003  
  797.50  2.5131E-003  
  798.00  2.2432E-003  
  798.50  2.4257E-003  
  799.00  2.6735E-003  
  799.50  2.8321E-003  
  800.00  2.6609E-003  
  800.50  2.3173E-003  
  801.00  1.9367E-003  
  801.50  1.6806E-003  
  802.00  1.6385E-003  
  802.50  1.6614E-003  
  803.00  1.5755E-003  
  803.50  1.6065E-003  
  804.00  1.6431E-003  
  804.50  1.6992E-003  
  805.00  1.7250E-003  
  805.50  1.5568E-003  
  806.00  1.3078E-003  
  806.50  1.3699E-003  
  807.00  1.9098E-003  
  807.50  2.1342E-003  
  808.00  2.0309E-003  
  808.50  1.6960E-003  
  809.00  1.6357E-003  
  809.50  1.4040E-003  
  810.00  1.3804E-003  
  810.50  1.4340E-003  
  811.00  1.4379E-003  
  811.50  1.4303E-003  
  812.00  1.5529E-003  
  812.50  1.6504E-003  
  813.00  1.6077E-003  
  813.50  1.4935E-003  
  814.00  1.2980E-003  
  814.50  1.2206E-003  
  815.00  1.3088E-003  
  815.50  1.3252E-003  
  816.00  1.5110E-003  
  816.50  1.3962E-003  
  817.00  1.3154E-003  
  817.50  1.3825E-003  
  818.00  1.4012E-003  
  818.50  1.2910E-003  
  819.00  1.1274E-003  
  819.50  1.0746E-003  
  820.00  1.0884E-003  
  820.50  7.5053E-004  
  821.00  8.3877E-004  
  821.50  8.5245E-004  
  822.00  1.0675E-003  
  822.50  1.2055E-003  
  823.00  1.2241E-003  
  823.50  1.2351E-003  
  824.00  1.5079E-003  
  824.50  1.6303E-003  
  825.00  1.2482E-003  
  825.50  1.0109E-003  
  826.00  9.4481E-004  
  826.50  9.3770E-004  
  827.00  4.6964E-004  
  827.50  5.5800E-004  
  828.00  8.2568E-004  
  828.50  9.1182E-004  
  829.00  8.4315E-004  
  829.50  8.1490E-004  
  830.00  8.8527E-004  
  830.50  8.6504E-004  
  831.00  9.1216E-004  
  831.50  1.2971E-003  
  832.00  1.6210E-003  
  832.50  1.3028E-003  
  833.00  9.4923E-004  
  833.50  8.7355E-004  
  834.00  8.7756E-004  
  834.50  7.0093E-004  
  835.00  8.8689E-004  
  835.50  1.1346E-003  
  836.00  1.1044E-003  
  836.50  1.0436E-003  
  837.00  1.1580E-003  
  837.50  1.0552E-003  
  838.00  7.2060E-004  
  838.50  3.0202E-004  
  839.00  1.1280E-004  
  839.50  2.5181E-004  
  840.00  4.1273E-004  
  840.50  4.0286E-004  
  841.00  6.2549E-005  
  841.50  4.8527E-004  
  842.00  7.6538E-004  
  842.50  6.0479E-004  
  843.00  1.2864E-004  
  843.50  3.2361E-004  
  844.00  5.5220E-004  
  844.50  2.1552E-004  
  845.00  3.3167E-004  
  845.50  6.5499E-004  
  846.00  7.9130E-004  
  846.50  6.7591E-004  
  847.00  6.8356E-004  
  847.50  1.0079E-003  
  848.00  1.1188E-003  
  848.50  8.6272E-004  
  849.00  1.3187E-004  
  849.50  0.0000E+000  
  850.00  1.9646E-004  
  850.50  1.0254E-003  
  851.00  5.7311E-004  
  851.50  4.0706E-004  
  852.00  6.5346E-004  
  852.50  3.7577E-004  
  853.00  3.3951E-005  
  853.50  2.7471E-005  
  854.00  0.0000E+000  
  854.50  5.3863E-005  
  855.00  6.1166E-004  
  855.50  1.1159E-003  
  856.00  8.8663E-004  
  856.50  4.5047E-004  
  857.00  3.1376E-005  
  857.50  3.0465E-004  
  858.00  2.6808E-004  
  858.50  0.0000E+000  
  859.00  5.6863E-005  
  859.50  3.0920E-004  
  860.00  5.4703E-004  
  860.50  7.0616E-004  
  861.00  6.4468E-004  
  861.50  4.6064E-004  
  862.00  5.8416E-006  
  862.50  0.0000E+000  
  863.00  0.0000E+000  
  863.50  2.6328E-004  
  864.00  2.8375E-004  
  864.50  2.8975E-004  
  865.00  2.0576E-004  
  865.50  0.0000E+000  
  866.00  0.0000E+000  
  866.50  3.7616E-005  
  867.00  3.8222E-004  
  867.50  5.0951E-004  
  868.00  3.6654E-004  
  868.50  3.1266E-004  
  869.00  3.7501E-004  
  869.50  9.0778E-005  
  870.00  0.0000E+000  
  870.50  0.0000E+000  
  871.00  0.0000E+000  
  871.50  3.7821E-005  
  872.00  7.1291E-004  
  872.50  1.4762E-004  
  873.00  0.0000E+000  
  873.50  0.0000E+000  
  874.00  1.9221E-004  
  874.50  3.4842E-004  
  875.00  0.0000E+000  
  875.50  0.0000E+000  
  876.00  0.0000E+000  
  876.50  0.0000E+000  
  877.00  0.0000E+000  
  877.50  4.3487E-004  
  878.00  6.3675E-004  
  878.50  7.8748E-004  
  879.00  3.1358E-004  
  879.50  0.0000E+000  
  880.00  0.0000E+000  
  880.50  6.9530E-005  
  881.00  7.0606E-004  
  881.50  1.1700E-003  
  882.00  1.1318E-003  
  882.50  5.8238E-004  
  883.00  5.9219E-004  
  883.50  8.7899E-004  
  884.00  1.0351E-003  
  884.50  1.3806E-003  
  885.00  6.6776E-004  
  885.50  1.6278E-004  
  886.00  6.0659E-004  
  886.50  4.8927E-004  
  887.00  2.2395E-004  
  887.50  2.7254E-005  
  888.00  0.0000E+000  
  888.50  0.0000E+000  
  889.00  7.8554E-004  
  889.50  1.2193E-003  
  890.00  1.1503E-003  
  890.50  1.0562E-003  
  891.00  5.5859E-004  
  891.50  4.0298E-005  
  892.00  2.3767E-004  
  892.50  6.7926E-004  
  893.00  1.0093E-003  
  893.50  1.1861E-003  
  894.00  1.6677E-003  
  894.50  1.9050E-003  
  895.00  1.7992E-003  
  895.50  1.0347E-003  
  896.00  3.0454E-004  
  896.50  0.0000E+000  
  897.00  3.7309E-004  
  897.50  1.3843E-003  
  898.00  1.1945E-003  
  898.50  2.7407E-004  
  899.00  3.5876E-004  
  899.50  1.5984E-005  
