
# From lspdd.org
# 
# Name: DEL Dals LEDDOWNPNLR6 Domestique
# Indice spectral Valeur 
# MSI 0.37 
# SLI 0.60 
# IPI 0.76 
# Pourcentage de bleu 22.7 
# Caractéristique Valeur 
# CCT calculée (K) 3056 
# CCT du fabricant (K) 3000 
# Tension (V) 120 
# Puissance (W) 12.0 
# Efficacité lumineuse (Lum/W) 78.0 
#
# Image: '/app/system/img_1s/2715/medium_image1.JPG?1464613460'
# 

  273.00  0.0000E+000  
  273.50  0.0000E+000  
  274.00  0.0000E+000  
  274.50  0.0000E+000  
  275.00  0.0000E+000  
  275.50  0.0000E+000  
  276.00  0.0000E+000  
  276.50  0.0000E+000  
  277.00  0.0000E+000  
  277.50  0.0000E+000  
  278.00  0.0000E+000  
  278.50  0.0000E+000  
  279.00  0.0000E+000  
  279.50  0.0000E+000  
  280.00  0.0000E+000  
  280.50  0.0000E+000  
  281.00  0.0000E+000  
  281.50  0.0000E+000  
  282.00  0.0000E+000  
  282.50  0.0000E+000  
  283.00  0.0000E+000  
  283.50  0.0000E+000  
  284.00  0.0000E+000  
  284.50  0.0000E+000  
  285.00  0.0000E+000  
  285.50  0.0000E+000  
  286.00  0.0000E+000  
  286.50  0.0000E+000  
  287.00  0.0000E+000  
  287.50  0.0000E+000  
  288.00  0.0000E+000  
  288.50  0.0000E+000  
  289.00  0.0000E+000  
  289.50  0.0000E+000  
  290.00  0.0000E+000  
  290.50  0.0000E+000  
  291.00  0.0000E+000  
  291.50  0.0000E+000  
  292.00  0.0000E+000  
  292.50  0.0000E+000  
  293.00  0.0000E+000  
  293.50  0.0000E+000  
  294.00  0.0000E+000  
  294.50  0.0000E+000  
  295.00  0.0000E+000  
  295.50  0.0000E+000  
  296.00  0.0000E+000  
  296.50  0.0000E+000  
  297.00  0.0000E+000  
  297.50  0.0000E+000  
  298.00  0.0000E+000  
  298.50  0.0000E+000  
  299.00  0.0000E+000  
  299.50  0.0000E+000  
  300.00  8.2859E-005  
  300.50  2.4569E-004  
  301.00  2.6501E-004  
  301.50  2.7132E-004  
  302.00  3.1939E-004  
  302.50  3.5223E-004  
  303.00  4.1480E-004  
  303.50  4.9217E-004  
  304.00  4.9310E-004  
  304.50  4.7674E-004  
  305.00  4.9234E-004  
  305.50  5.0798E-004  
  306.00  5.1727E-004  
  306.50  4.6582E-004  
  307.00  3.9918E-004  
  307.50  2.8932E-004  
  308.00  2.5438E-004  
  308.50  2.2547E-004  
  309.00  2.4402E-004  
  309.50  3.0749E-004  
  310.00  4.0203E-004  
  310.50  5.1948E-004  
  311.00  5.8576E-004  
  311.50  8.2930E-004  
  312.00  9.6629E-004  
  312.50  9.5244E-004  
  313.00  8.6727E-004  
  313.50  5.9029E-004  
  314.00  5.1332E-004  
  314.50  5.4667E-004  
  315.00  5.8782E-004  
  315.50  5.3743E-004  
  316.00  4.7820E-004  
  316.50  4.5163E-004  
  317.00  4.7176E-004  
  317.50  6.1719E-004  
  318.00  6.9482E-004  
  318.50  7.9850E-004  
  319.00  8.6680E-004  
  319.50  8.1593E-004  
  320.00  7.4557E-004  
  320.50  6.2344E-004  
  321.00  5.8338E-004  
  321.50  6.4663E-004  
  322.00  6.9853E-004  
  322.50  6.8577E-004  
  323.00  5.9806E-004  
  323.50  5.1967E-004  
  324.00  4.9862E-004  
  324.50  5.7552E-004  
  325.00  6.7938E-004  
  325.50  7.2231E-004  
  326.00  7.3292E-004  
  326.50  6.5817E-004  
  327.00  6.2035E-004  
  327.50  6.7885E-004  
  328.00  7.5549E-004  
  328.50  8.3313E-004  
  329.00  8.3198E-004  
  329.50  7.2692E-004  
  330.00  6.1798E-004  
  330.50  5.9953E-004  
  331.00  5.6832E-004  
  331.50  6.0390E-004  
  332.00  6.1593E-004  
  332.50  5.8709E-004  
  333.00  6.4578E-004  
  333.50  6.1660E-004  
  334.00  6.2519E-004  
  334.50  6.9349E-004  
  335.00  7.0685E-004  
  335.50  7.2995E-004  
  336.00  7.2934E-004  
  336.50  6.5166E-004  
  337.00  6.5237E-004  
  337.50  6.7546E-004  
  338.00  7.0856E-004  
  338.50  7.4545E-004  
  339.00  7.5847E-004  
  339.50  7.4598E-004  
  340.00  7.3733E-004  
  340.50  7.0533E-004  
  341.00  6.6866E-004  
  341.50  6.7327E-004  
  342.00  6.6193E-004  
  342.50  6.6594E-004  
  343.00  6.9826E-004  
  343.50  7.2086E-004  
  344.00  8.0563E-004  
  344.50  8.4673E-004  
  345.00  8.5047E-004  
  345.50  8.3965E-004  
  346.00  7.5385E-004  
  346.50  7.3082E-004  
  347.00  7.2146E-004  
  347.50  7.2021E-004  
  348.00  7.3992E-004  
  348.50  7.2543E-004  
  349.00  7.1711E-004  
  349.50  7.5395E-004  
  350.00  7.7221E-004  
  350.50  7.5391E-004  
  351.00  7.2874E-004  
  351.50  7.1670E-004  
  352.00  7.7387E-004  
  352.50  8.4299E-004  
  353.00  9.0366E-004  
  353.50  8.7814E-004  
  354.00  8.4299E-004  
  354.50  7.9664E-004  
  355.00  7.9825E-004  
  355.50  8.3705E-004  
  356.00  8.3845E-004  
  356.50  8.1949E-004  
  357.00  7.7005E-004  
  357.50  7.1307E-004  
  358.00  6.8356E-004  
  358.50  6.5999E-004  
  359.00  6.5869E-004  
  359.50  6.8027E-004  
  360.00  7.4534E-004  
  360.50  7.8330E-004  
  361.00  8.0814E-004  
  361.50  8.8529E-004  
  362.00  9.6731E-004  
  362.50  1.0109E-003  
  363.00  1.0506E-003  
  363.50  9.9485E-004  
  364.00  9.0366E-004  
  364.50  8.2284E-004  
  365.00  7.1954E-004  
  365.50  6.2862E-004  
  366.00  5.8189E-004  
  366.50  5.9303E-004  
  367.00  6.1578E-004  
  367.50  6.3523E-004  
  368.00  6.5483E-004  
  368.50  6.7812E-004  
  369.00  6.7737E-004  
  369.50  7.0325E-004  
  370.00  6.9546E-004  
  370.50  7.2063E-004  
  371.00  6.9190E-004  
  371.50  6.8169E-004  
  372.00  6.8698E-004  
  372.50  6.8113E-004  
  373.00  7.3851E-004  
  373.50  8.0382E-004  
  374.00  8.0748E-004  
  374.50  8.1570E-004  
  375.00  7.7889E-004  
  375.50  7.3056E-004  
  376.00  6.8918E-004  
  376.50  7.6090E-004  
  377.00  8.1354E-004  
  377.50  8.9027E-004  
  378.00  9.8635E-004  
  378.50  9.7585E-004  
  379.00  1.0039E-003  
  379.50  1.0155E-003  
  380.00  9.6362E-004  
  380.50  9.5134E-004  
  381.00  9.5052E-004  
  381.50  9.0684E-004  
  382.00  9.2169E-004  
  382.50  9.1990E-004  
  383.00  9.8520E-004  
  383.50  1.0196E-003  
  384.00  1.0012E-003  
  384.50  9.2050E-004  
  385.00  8.6424E-004  
  385.50  9.0860E-004  
  386.00  8.8491E-004  
  386.50  9.0683E-004  
  387.00  8.3658E-004  
  387.50  7.6305E-004  
  388.00  8.4995E-004  
  388.50  9.0831E-004  
  389.00  9.9319E-004  
  389.50  1.0541E-003  
  390.00  1.0286E-003  
  390.50  1.0080E-003  
  391.00  9.5964E-004  
  391.50  8.8614E-004  
  392.00  8.7162E-004  
  392.50  9.0656E-004  
  393.00  9.2400E-004  
  393.50  9.6406E-004  
  394.00  9.9214E-004  
  394.50  9.9089E-004  
  395.00  1.0092E-003  
  395.50  1.0084E-003  
  396.00  1.0031E-003  
  396.50  1.0740E-003  
  397.00  1.1678E-003  
  397.50  1.2211E-003  
  398.00  1.2454E-003  
  398.50  1.2187E-003  
  399.00  1.1638E-003  
  399.50  1.1547E-003  
  400.00  1.1611E-003  
  400.50  1.2272E-003  
  401.00  1.2812E-003  
  401.50  1.3382E-003  
  402.00  1.3899E-003  
  402.50  1.4271E-003  
  403.00  1.4829E-003  
  403.50  1.5132E-003  
  404.00  1.5399E-003  
  404.50  1.5460E-003  
  405.00  1.5314E-003  
  405.50  1.5424E-003  
  406.00  1.5294E-003  
  406.50  1.5300E-003  
  407.00  1.5630E-003  
  407.50  1.5903E-003  
  408.00  1.6492E-003  
  408.50  1.6937E-003  
  409.00  1.7405E-003  
  409.50  1.8728E-003  
  410.00  1.9857E-003  
  410.50  2.1100E-003  
  411.00  2.1367E-003  
  411.50  2.1672E-003  
  412.00  2.2957E-003  
  412.50  2.4123E-003  
  413.00  2.5893E-003  
  413.50  2.7151E-003  
  414.00  2.7925E-003  
  414.50  2.8997E-003  
  415.00  3.0933E-003  
  415.50  3.3061E-003  
  416.00  3.5537E-003  
  416.50  3.7456E-003  
  417.00  3.9163E-003  
  417.50  4.1739E-003  
  418.00  4.4171E-003  
  418.50  4.6757E-003  
  419.00  4.9956E-003  
  419.50  5.3522E-003  
  420.00  5.7573E-003  
  420.50  6.1490E-003  
  421.00  6.4424E-003  
  421.50  6.8052E-003  
  422.00  7.2445E-003  
  422.50  7.7034E-003  
  423.00  8.2399E-003  
  423.50  8.8096E-003  
  424.00  9.4067E-003  
  424.50  1.0073E-002  
  425.00  1.0710E-002  
  425.50  1.1297E-002  
  426.00  1.1902E-002  
  426.50  1.2514E-002  
  427.00  1.3248E-002  
  427.50  1.4085E-002  
  428.00  1.5010E-002  
  428.50  1.5950E-002  
  429.00  1.6902E-002  
  429.50  1.7887E-002  
  430.00  1.8855E-002  
  430.50  1.9889E-002  
  431.00  2.0908E-002  
  431.50  2.2090E-002  
  432.00  2.3366E-002  
  432.50  2.4772E-002  
  433.00  2.6227E-002  
  433.50  2.7798E-002  
  434.00  2.9417E-002  
  434.50  3.1151E-002  
  435.00  3.2886E-002  
  435.50  3.4729E-002  
  436.00  3.6743E-002  
  436.50  3.8882E-002  
  437.00  4.1053E-002  
  437.50  4.3301E-002  
  438.00  4.5649E-002  
  438.50  4.8232E-002  
  439.00  5.0978E-002  
  439.50  5.3973E-002  
  440.00  5.7094E-002  
  440.50  6.0415E-002  
  441.00  6.3953E-002  
  441.50  6.7542E-002  
  442.00  7.1637E-002  
  442.50  7.5798E-002  
  443.00  8.0169E-002  
  443.50  8.4551E-002  
  444.00  8.8883E-002  
  444.50  9.3470E-002  
  445.00  9.8085E-002  
  445.50  1.0321E-001  
  446.00  1.0812E-001  
  446.50  1.1295E-001  
  447.00  1.1768E-001  
  447.50  1.2235E-001  
  448.00  1.2667E-001  
  448.50  1.3045E-001  
  449.00  1.3381E-001  
  449.50  1.3691E-001  
  450.00  1.3897E-001  
  450.50  1.4043E-001  
  451.00  1.4097E-001  
  451.50  1.4125E-001  
  452.00  1.4158E-001  
  452.50  1.4128E-001  
  453.00  1.4058E-001  
  453.50  1.3880E-001  
  454.00  1.3638E-001  
  454.50  1.3339E-001  
  455.00  1.3008E-001  
  455.50  1.2706E-001  
  456.00  1.2406E-001  
  456.50  1.2103E-001  
  457.00  1.1811E-001  
  457.50  1.1472E-001  
  458.00  1.1164E-001  
  458.50  1.0878E-001  
  459.00  1.0621E-001  
  459.50  1.0392E-001  
  460.00  1.0189E-001  
  460.50  9.9938E-002  
  461.00  9.8110E-002  
  461.50  9.6586E-002  
  462.00  9.5174E-002  
  462.50  9.4102E-002  
  463.00  9.3191E-002  
  463.50  9.2114E-002  
  464.00  9.1340E-002  
  464.50  9.0302E-002  
  465.00  8.9214E-002  
  465.50  8.7874E-002  
  466.00  8.6436E-002  
  466.50  8.5125E-002  
  467.00  8.3927E-002  
  467.50  8.2870E-002  
  468.00  8.1755E-002  
  468.50  8.0485E-002  
  469.00  7.9135E-002  
  469.50  7.7653E-002  
  470.00  7.6186E-002  
  470.50  7.4674E-002  
  471.00  7.3050E-002  
  471.50  7.1497E-002  
  472.00  7.0128E-002  
  472.50  6.9042E-002  
  473.00  6.8092E-002  
  473.50  6.7173E-002  
  474.00  6.6285E-002  
  474.50  6.5580E-002  
  475.00  6.4905E-002  
  475.50  6.4261E-002  
  476.00  6.3635E-002  
  476.50  6.3205E-002  
  477.00  6.2979E-002  
  477.50  6.2846E-002  
  478.00  6.2881E-002  
  478.50  6.2998E-002  
  479.00  6.3219E-002  
  479.50  6.3515E-002  
  480.00  6.3838E-002  
  480.50  6.4268E-002  
  481.00  6.4668E-002  
  481.50  6.5142E-002  
  482.00  6.5558E-002  
  482.50  6.5933E-002  
  483.00  6.6369E-002  
  483.50  6.6865E-002  
  484.00  6.7661E-002  
  484.50  6.8439E-002  
  485.00  6.9181E-002  
  485.50  6.9824E-002  
  486.00  7.0433E-002  
  486.50  7.1228E-002  
  487.00  7.1868E-002  
  487.50  7.2612E-002  
  488.00  7.3390E-002  
  488.50  7.4416E-002  
  489.00  7.5620E-002  
  489.50  7.6794E-002  
  490.00  7.7898E-002  
  490.50  7.8961E-002  
  491.00  8.0186E-002  
  491.50  8.1454E-002  
  492.00  8.2768E-002  
  492.50  8.3951E-002  
  493.00  8.5070E-002  
  493.50  8.6262E-002  
  494.00  8.7461E-002  
  494.50  8.8738E-002  
  495.00  9.0058E-002  
  495.50  9.1498E-002  
  496.00  9.3041E-002  
  496.50  9.4426E-002  
  497.00  9.5860E-002  
  497.50  9.7292E-002  
  498.00  9.8784E-002  
  498.50  1.0032E-001  
  499.00  1.0171E-001  
  499.50  1.0304E-001  
  500.00  1.0430E-001  
  500.50  1.0547E-001  
  501.00  1.0664E-001  
  501.50  1.0800E-001  
  502.00  1.0932E-001  
  502.50  1.1065E-001  
  503.00  1.1197E-001  
  503.50  1.1303E-001  
  504.00  1.1415E-001  
  504.50  1.1509E-001  
  505.00  1.1608E-001  
  505.50  1.1714E-001  
  506.00  1.1810E-001  
  506.50  1.1909E-001  
  507.00  1.2003E-001  
  507.50  1.2087E-001  
  508.00  1.2173E-001  
  508.50  1.2237E-001  
  509.00  1.2297E-001  
  509.50  1.2352E-001  
  510.00  1.2410E-001  
  510.50  1.2476E-001  
  511.00  1.2554E-001  
  511.50  1.2619E-001  
  512.00  1.2680E-001  
  512.50  1.2730E-001  
  513.00  1.2779E-001  
  513.50  1.2819E-001  
  514.00  1.2852E-001  
  514.50  1.2892E-001  
  515.00  1.2929E-001  
  515.50  1.2967E-001  
  516.00  1.3004E-001  
  516.50  1.3040E-001  
  517.00  1.3079E-001  
  517.50  1.3109E-001  
  518.00  1.3143E-001  
  518.50  1.3192E-001  
  519.00  1.3234E-001  
  519.50  1.3285E-001  
  520.00  1.3318E-001  
  520.50  1.3352E-001  
  521.00  1.3385E-001  
  521.50  1.3416E-001  
  522.00  1.3448E-001  
  522.50  1.3476E-001  
  523.00  1.3520E-001  
  523.50  1.3567E-001  
  524.00  1.3610E-001  
  524.50  1.3647E-001  
  525.00  1.3691E-001  
  525.50  1.3745E-001  
  526.00  1.3794E-001  
  526.50  1.3836E-001  
  527.00  1.3877E-001  
  527.50  1.3924E-001  
  528.00  1.3968E-001  
  528.50  1.4010E-001  
  529.00  1.4049E-001  
  529.50  1.4087E-001  
  530.00  1.4133E-001  
  530.50  1.4175E-001  
  531.00  1.4214E-001  
  531.50  1.4264E-001  
  532.00  1.4323E-001  
  532.50  1.4386E-001  
  533.00  1.4442E-001  
  533.50  1.4489E-001  
  534.00  1.4549E-001  
  534.50  1.4609E-001  
  535.00  1.4670E-001  
  535.50  1.4730E-001  
  536.00  1.4789E-001  
  536.50  1.4844E-001  
  537.00  1.4891E-001  
  537.50  1.4941E-001  
  538.00  1.5001E-001  
  538.50  1.5062E-001  
  539.00  1.5121E-001  
  539.50  1.5176E-001  
  540.00  1.5241E-001  
  540.50  1.5307E-001  
  541.00  1.5378E-001  
  541.50  1.5447E-001  
  542.00  1.5512E-001  
  542.50  1.5576E-001  
  543.00  1.5633E-001  
  543.50  1.5686E-001  
  544.00  1.5733E-001  
  544.50  1.5787E-001  
  545.00  1.5844E-001  
  545.50  1.5910E-001  
  546.00  1.5965E-001  
  546.50  1.6014E-001  
  547.00  1.6066E-001  
  547.50  1.6122E-001  
  548.00  1.6163E-001  
  548.50  1.6201E-001  
  549.00  1.6230E-001  
  549.50  1.6273E-001  
  550.00  1.6308E-001  
  550.50  1.6351E-001  
  551.00  1.6400E-001  
  551.50  1.6453E-001  
  552.00  1.6506E-001  
  552.50  1.6545E-001  
  553.00  1.6592E-001  
  553.50  1.6639E-001  
  554.00  1.6690E-001  
  554.50  1.6738E-001  
  555.00  1.6784E-001  
  555.50  1.6836E-001  
  556.00  1.6885E-001  
  556.50  1.6949E-001  
  557.00  1.6997E-001  
  557.50  1.7050E-001  
  558.00  1.7100E-001  
  558.50  1.7155E-001  
  559.00  1.7201E-001  
  559.50  1.7257E-001  
  560.00  1.7312E-001  
  560.50  1.7374E-001  
  561.00  1.7442E-001  
  561.50  1.7503E-001  
  562.00  1.7566E-001  
  562.50  1.7607E-001  
  563.00  1.7653E-001  
  563.50  1.7704E-001  
  564.00  1.7775E-001  
  564.50  1.7838E-001  
  565.00  1.7897E-001  
  565.50  1.7947E-001  
  566.00  1.7998E-001  
  566.50  1.8048E-001  
  567.00  1.8111E-001  
  567.50  1.8161E-001  
  568.00  1.8213E-001  
  568.50  1.8263E-001  
  569.00  1.8320E-001  
  569.50  1.8390E-001  
  570.00  1.8446E-001  
  570.50  1.8506E-001  
  571.00  1.8564E-001  
  571.50  1.8630E-001  
  572.00  1.8698E-001  
  572.50  1.8753E-001  
  573.00  1.8811E-001  
  573.50  1.8862E-001  
  574.00  1.8932E-001  
  574.50  1.8995E-001  
  575.00  1.9060E-001  
  575.50  1.9117E-001  
  576.00  1.9171E-001  
  576.50  1.9227E-001  
  577.00  1.9286E-001  
  577.50  1.9355E-001  
  578.00  1.9433E-001  
  578.50  1.9492E-001  
  579.00  1.9546E-001  
  579.50  1.9591E-001  
  580.00  1.9645E-001  
  580.50  1.9703E-001  
  581.00  1.9765E-001  
  581.50  1.9827E-001  
  582.00  1.9882E-001  
  582.50  1.9927E-001  
  583.00  1.9971E-001  
  583.50  2.0024E-001  
  584.00  2.0087E-001  
  584.50  2.0156E-001  
  585.00  2.0226E-001  
  585.50  2.0288E-001  
  586.00  2.0343E-001  
  586.50  2.0396E-001  
  587.00  2.0460E-001  
  587.50  2.0517E-001  
  588.00  2.0594E-001  
  588.50  2.0665E-001  
  589.00  2.0749E-001  
  589.50  2.0812E-001  
  590.00  2.0874E-001  
  590.50  2.0925E-001  
  591.00  2.0996E-001  
  591.50  2.1065E-001  
  592.00  2.1144E-001  
  592.50  2.1218E-001  
  593.00  2.1289E-001  
  593.50  2.1350E-001  
  594.00  2.1401E-001  
  594.50  2.1467E-001  
  595.00  2.1526E-001  
  595.50  2.1597E-001  
  596.00  2.1661E-001  
  596.50  2.1730E-001  
  597.00  2.1797E-001  
  597.50  2.1866E-001  
  598.00  2.1933E-001  
  598.50  2.1992E-001  
  599.00  2.2050E-001  
  599.50  2.2114E-001  
  600.00  2.2182E-001  
  600.50  2.2252E-001  
  601.00  2.2309E-001  
  601.50  2.2379E-001  
  602.00  2.2440E-001  
  602.50  2.2509E-001  
  603.00  2.2573E-001  
  603.50  2.2638E-001  
  604.00  2.2707E-001  
  604.50  2.2780E-001  
  605.00  2.2852E-001  
  605.50  2.2920E-001  
  606.00  2.2989E-001  
  606.50  2.3067E-001  
  607.00  2.3153E-001  
  607.50  2.3246E-001  
  608.00  2.3336E-001  
  608.50  2.3419E-001  
  609.00  2.3485E-001  
  609.50  2.3552E-001  
  610.00  2.3628E-001  
  610.50  2.3711E-001  
  611.00  2.3801E-001  
  611.50  2.3891E-001  
  612.00  2.3972E-001  
  612.50  2.4047E-001  
  613.00  2.4119E-001  
  613.50  2.4197E-001  
  614.00  2.4276E-001  
  614.50  2.4356E-001  
  615.00  2.4433E-001  
  615.50  2.4515E-001  
  616.00  2.4570E-001  
  616.50  2.4621E-001  
  617.00  2.4679E-001  
  617.50  2.4759E-001  
  618.00  2.4857E-001  
  618.50  2.4939E-001  
  619.00  2.5006E-001  
  619.50  2.5057E-001  
  620.00  2.5127E-001  
  620.50  2.5216E-001  
  621.00  2.5311E-001  
  621.50  2.5389E-001  
  622.00  2.5445E-001  
  622.50  2.5506E-001  
  623.00  2.5571E-001  
  623.50  2.5643E-001  
  624.00  2.5709E-001  
  624.50  2.5783E-001  
  625.00  2.5857E-001  
  625.50  2.5922E-001  
  626.00  2.5983E-001  
  626.50  2.6055E-001  
  627.00  2.6146E-001  
  627.50  2.6229E-001  
  628.00  2.6302E-001  
  628.50  2.6383E-001  
  629.00  2.6460E-001  
  629.50  2.6548E-001  
  630.00  2.6622E-001  
  630.50  2.6703E-001  
  631.00  2.6779E-001  
  631.50  2.6856E-001  
  632.00  2.6939E-001  
  632.50  2.7014E-001  
  633.00  2.7066E-001  
  633.50  2.7087E-001  
  634.00  2.7080E-001  
  634.50  2.7064E-001  
  635.00  2.7041E-001  
  635.50  2.7011E-001  
  636.00  2.6969E-001  
  636.50  2.6933E-001  
  637.00  2.6905E-001  
  637.50  2.6877E-001  
  638.00  2.6833E-001  
  638.50  2.6786E-001  
  639.00  2.6727E-001  
  639.50  2.6669E-001  
  640.00  2.6620E-001  
  640.50  2.6561E-001  
  641.00  2.6491E-001  
  641.50  2.6407E-001  
  642.00  2.6333E-001  
  642.50  2.6272E-001  
  643.00  2.6204E-001  
  643.50  2.6130E-001  
  644.00  2.6050E-001  
  644.50  2.5959E-001  
  645.00  2.5868E-001  
  645.50  2.5777E-001  
  646.00  2.5682E-001  
  646.50  2.5585E-001  
  647.00  2.5454E-001  
  647.50  2.5308E-001  
  648.00  2.5151E-001  
  648.50  2.5017E-001  
  649.00  2.4878E-001  
  649.50  2.4736E-001  
  650.00  2.4590E-001  
  650.50  2.4423E-001  
  651.00  2.4238E-001  
  651.50  2.4012E-001  
  652.00  2.3809E-001  
  652.50  2.3587E-001  
  653.00  2.3369E-001  
  653.50  2.3151E-001  
  654.00  2.2954E-001  
  654.50  2.2733E-001  
  655.00  2.2506E-001  
  655.50  2.2257E-001  
  656.00  2.2018E-001  
  656.50  2.1776E-001  
  657.00  2.1517E-001  
  657.50  2.1253E-001  
  658.00  2.0989E-001  
  658.50  2.0754E-001  
  659.00  2.0518E-001  
  659.50  2.0245E-001  
  660.00  1.9978E-001  
  660.50  1.9736E-001  
  661.00  1.9534E-001  
  661.50  1.9285E-001  
  662.00  1.9028E-001  
  662.50  1.8759E-001  
  663.00  1.8517E-001  
  663.50  1.8260E-001  
  664.00  1.8018E-001  
  664.50  1.7765E-001  
  665.00  1.7519E-001  
  665.50  1.7248E-001  
  666.00  1.6991E-001  
  666.50  1.6743E-001  
  667.00  1.6526E-001  
  667.50  1.6305E-001  
  668.00  1.6078E-001  
  668.50  1.5860E-001  
  669.00  1.5645E-001  
  669.50  1.5418E-001  
  670.00  1.5172E-001  
  670.50  1.4934E-001  
  671.00  1.4711E-001  
  671.50  1.4504E-001  
  672.00  1.4304E-001  
  672.50  1.4102E-001  
  673.00  1.3905E-001  
  673.50  1.3713E-001  
  674.00  1.3507E-001  
  674.50  1.3300E-001  
  675.00  1.3086E-001  
  675.50  1.2880E-001  
  676.00  1.2648E-001  
  676.50  1.2417E-001  
  677.00  1.2223E-001  
  677.50  1.2051E-001  
  678.00  1.1892E-001  
  678.50  1.1702E-001  
  679.00  1.1516E-001  
  679.50  1.1336E-001  
  680.00  1.1169E-001  
  680.50  1.0992E-001  
  681.00  1.0801E-001  
  681.50  1.0606E-001  
  682.00  1.0419E-001  
  682.50  1.0255E-001  
  683.00  1.0082E-001  
  683.50  9.9166E-002  
  684.00  9.7620E-002  
  684.50  9.6148E-002  
  685.00  9.4465E-002  
  685.50  9.2879E-002  
  686.00  9.1578E-002  
  686.50  9.0364E-002  
  687.00  8.8885E-002  
  687.50  8.7468E-002  
  688.00  8.6142E-002  
  688.50  8.4803E-002  
  689.00  8.3289E-002  
  689.50  8.1860E-002  
  690.00  8.0561E-002  
  690.50  7.9288E-002  
  691.00  7.7882E-002  
  691.50  7.6491E-002  
  692.00  7.5222E-002  
  692.50  7.3953E-002  
  693.00  7.2742E-002  
  693.50  7.1691E-002  
  694.00  7.0651E-002  
  694.50  6.9406E-002  
  695.00  6.8095E-002  
  695.50  6.7008E-002  
  696.00  6.6143E-002  
  696.50  6.5070E-002  
  697.00  6.3878E-002  
  697.50  6.2867E-002  
  698.00  6.1868E-002  
  698.50  6.0781E-002  
  699.00  5.9534E-002  
  699.50  5.8513E-002  
  700.00  5.7533E-002  
  700.50  5.6563E-002  
  701.00  5.5473E-002  
  701.50  5.4254E-002  
  702.00  5.3208E-002  
  702.50  5.2382E-002  
  703.00  5.1627E-002  
  703.50  5.0768E-002  
  704.00  4.9920E-002  
  704.50  4.9095E-002  
  705.00  4.8370E-002  
  705.50  4.7641E-002  
  706.00  4.6832E-002  
  706.50  4.5935E-002  
  707.00  4.5215E-002  
  707.50  4.4597E-002  
  708.00  4.3866E-002  
  708.50  4.2904E-002  
  709.00  4.2091E-002  
  709.50  4.1418E-002  
  710.00  4.0847E-002  
  710.50  4.0220E-002  
  711.00  3.9503E-002  
  711.50  3.8695E-002  
  712.00  3.7957E-002  
  712.50  3.7382E-002  
  713.00  3.6812E-002  
  713.50  3.6139E-002  
  714.00  3.5381E-002  
  714.50  3.4714E-002  
  715.00  3.4013E-002  
  715.50  3.3383E-002  
  716.00  3.2662E-002  
  716.50  3.2100E-002  
  717.00  3.1634E-002  
  717.50  3.1301E-002  
  718.00  3.0861E-002  
  718.50  3.0285E-002  
  719.00  2.9588E-002  
  719.50  2.8858E-002  
  720.00  2.8158E-002  
  720.50  2.7545E-002  
  721.00  2.7089E-002  
  721.50  2.6654E-002  
  722.00  2.6247E-002  
  722.50  2.5709E-002  
  723.00  2.5131E-002  
  723.50  2.4603E-002  
  724.00  2.4122E-002  
  724.50  2.3690E-002  
  725.00  2.3192E-002  
  725.50  2.2801E-002  
  726.00  2.2445E-002  
  726.50  2.2016E-002  
  727.00  2.1580E-002  
  727.50  2.1274E-002  
  728.00  2.0995E-002  
  728.50  2.0579E-002  
  729.00  2.0209E-002  
  729.50  1.9957E-002  
  730.00  1.9728E-002  
  730.50  1.9467E-002  
  731.00  1.9118E-002  
  731.50  1.8781E-002  
  732.00  1.8495E-002  
  732.50  1.8220E-002  
  733.00  1.7884E-002  
  733.50  1.7577E-002  
  734.00  1.7430E-002  
  734.50  1.7380E-002  
  735.00  1.7078E-002  
  735.50  1.6574E-002  
  736.00  1.6025E-002  
  736.50  1.5729E-002  
  737.00  1.5596E-002  
  737.50  1.5457E-002  
  738.00  1.5404E-002  
  738.50  1.5432E-002  
  739.00  1.5364E-002  
  739.50  1.5190E-002  
  740.00  1.4819E-002  
  740.50  1.4493E-002  
  741.00  1.4329E-002  
  741.50  1.4245E-002  
  742.00  1.4001E-002  
  742.50  1.3650E-002  
  743.00  1.3488E-002  
  743.50  1.3338E-002  
  744.00  1.3141E-002  
  744.50  1.3004E-002  
  745.00  1.2922E-002  
  745.50  1.2749E-002  
  746.00  1.2485E-002  
  746.50  1.2324E-002  
  747.00  1.2262E-002  
  747.50  1.2273E-002  
  748.00  1.2021E-002  
  748.50  1.1725E-002  
  749.00  1.1373E-002  
  749.50  1.1337E-002  
  750.00  1.1311E-002  
  750.50  1.0911E-002  
  751.00  1.0347E-002  
  751.50  1.0106E-002  
  752.00  1.0317E-002  
  752.50  1.0435E-002  
  753.00  1.0500E-002  
  753.50  1.0444E-002  
  754.00  1.0369E-002  
  754.50  1.0139E-002  
  755.00  9.9317E-003  
  755.50  9.7517E-003  
  756.00  9.8103E-003  
  756.50  9.7660E-003  
  757.00  9.5864E-003  
  757.50  9.4992E-003  
  758.00  9.4284E-003  
  758.50  9.2941E-003  
  759.00  9.0128E-003  
  759.50  8.6568E-003  
  760.00  8.3326E-003  
  760.50  8.2113E-003  
  761.00  8.2297E-003  
  761.50  8.2501E-003  
  762.00  8.1909E-003  
  762.50  8.2132E-003  
  763.00  8.2039E-003  
  763.50  8.2407E-003  
  764.00  8.2102E-003  
  764.50  8.1429E-003  
  765.00  7.9915E-003  
  765.50  7.6998E-003  
  766.00  7.4112E-003  
  766.50  7.2513E-003  
  767.00  7.3000E-003  
  767.50  7.3379E-003  
  768.00  7.2994E-003  
  768.50  7.0766E-003  
  769.00  6.8691E-003  
  769.50  6.6618E-003  
  770.00  6.5182E-003  
  770.50  6.4187E-003  
  771.00  6.3637E-003  
  771.50  6.3740E-003  
  772.00  6.3145E-003  
  772.50  6.2048E-003  
  773.00  6.1092E-003  
  773.50  6.0656E-003  
  774.00  5.9431E-003  
  774.50  5.7496E-003  
  775.00  5.7526E-003  
  775.50  5.8415E-003  
  776.00  5.9039E-003  
  776.50  5.7827E-003  
  777.00  5.6951E-003  
  777.50  5.6058E-003  
  778.00  5.4101E-003  
  778.50  5.1409E-003  
  779.00  5.1046E-003  
  779.50  4.9142E-003  
  780.00  4.7067E-003  
  780.50  4.6291E-003  
  781.00  4.8469E-003  
  781.50  5.0552E-003  
  782.00  5.0229E-003  
  782.50  4.8501E-003  
  783.00  4.7431E-003  
  783.50  4.6190E-003  
  784.00  4.6109E-003  
  784.50  4.5315E-003  
  785.00  4.3808E-003  
  785.50  4.1502E-003  
  786.00  4.0648E-003  
  786.50  4.0692E-003  
  787.00  4.1277E-003  
  787.50  4.1097E-003  
  788.00  4.0170E-003  
  788.50  3.9455E-003  
  789.00  3.7466E-003  
  789.50  3.6412E-003  
  790.00  3.5513E-003  
  790.50  3.5625E-003  
  791.00  3.6186E-003  
  791.50  3.7333E-003  
  792.00  3.7861E-003  
  792.50  3.6632E-003  
  793.00  3.5601E-003  
  793.50  3.3585E-003  
  794.00  3.3182E-003  
  794.50  3.1840E-003  
  795.00  3.0125E-003  
  795.50  2.9184E-003  
  796.00  3.1332E-003  
  796.50  3.3187E-003  
  797.00  3.4197E-003  
  797.50  3.3133E-003  
  798.00  3.1588E-003  
  798.50  3.1775E-003  
  799.00  3.1279E-003  
  799.50  3.0013E-003  
  800.00  2.8244E-003  
  800.50  2.6889E-003  
  801.00  2.5262E-003  
  801.50  2.3768E-003  
  802.00  2.3704E-003  
  802.50  2.4590E-003  
  803.00  2.3509E-003  
  803.50  2.3140E-003  
  804.00  2.5242E-003  
  804.50  2.8269E-003  
  805.00  2.7808E-003  
  805.50  2.5225E-003  
  806.00  2.4363E-003  
  806.50  2.4653E-003  
  807.00  2.5354E-003  
  807.50  2.6337E-003  
  808.00  2.7054E-003  
  808.50  2.6494E-003  
  809.00  2.3530E-003  
  809.50  1.9749E-003  
  810.00  1.9387E-003  
  810.50  2.1022E-003  
  811.00  2.1990E-003  
  811.50  2.2731E-003  
  812.00  2.4566E-003  
  812.50  2.6503E-003  
  813.00  2.5338E-003  
  813.50  2.3049E-003  
  814.00  2.0605E-003  
  814.50  1.8100E-003  
  815.00  1.8779E-003  
  815.50  1.8870E-003  
  816.00  1.8844E-003  
  816.50  1.8286E-003  
  817.00  2.1496E-003  
  817.50  2.2093E-003  
  818.00  2.1934E-003  
  818.50  2.1283E-003  
  819.00  2.0163E-003  
  819.50  1.8334E-003  
  820.00  1.5558E-003  
  820.50  1.2519E-003  
  821.00  1.5576E-003  
  821.50  1.9116E-003  
  822.00  2.0777E-003  
  822.50  2.0272E-003  
  823.00  2.1742E-003  
  823.50  2.1348E-003  
  824.00  2.2193E-003  
  824.50  2.2583E-003  
  825.00  1.9258E-003  
  825.50  1.6609E-003  
  826.00  1.6199E-003  
  826.50  1.6624E-003  
  827.00  1.5628E-003  
  827.50  1.3772E-003  
  828.00  1.7638E-003  
  828.50  2.0069E-003  
  829.00  2.1027E-003  
  829.50  1.9090E-003  
  830.00  1.7092E-003  
  830.50  1.4485E-003  
  831.00  1.2711E-003  
  831.50  1.3486E-003  
  832.00  1.8058E-003  
  832.50  1.9134E-003  
  833.00  1.5916E-003  
  833.50  1.3004E-003  
  834.00  1.3523E-003  
  834.50  1.6393E-003  
  835.00  1.8919E-003  
  835.50  1.6796E-003  
  836.00  1.8704E-003  
  836.50  1.9909E-003  
  837.00  2.1914E-003  
  837.50  1.9242E-003  
  838.00  1.5492E-003  
  838.50  1.1613E-003  
  839.00  7.8544E-004  
  839.50  3.4984E-004  
  840.00  6.2750E-004  
  840.50  6.3455E-004  
  841.00  4.5756E-004  
  841.50  1.0075E-003  
  842.00  1.1834E-003  
  842.50  7.4113E-004  
  843.00  4.7687E-004  
  843.50  8.9924E-004  
  844.00  1.4909E-003  
  844.50  1.3073E-003  
  845.00  1.4760E-003  
  845.50  1.6261E-003  
  846.00  1.2152E-003  
  846.50  1.0977E-003  
  847.00  1.0335E-003  
  847.50  1.0119E-003  
  848.00  9.4114E-004  
  848.50  1.1695E-003  
  849.00  7.6119E-004  
  849.50  7.3179E-004  
  850.00  1.1077E-003  
  850.50  1.1160E-003  
  851.00  4.2740E-004  
  851.50  5.1777E-004  
  852.00  1.0771E-003  
  852.50  1.2276E-003  
  853.00  1.2812E-003  
  853.50  1.3334E-003  
  854.00  9.9209E-004  
  854.50  6.9880E-004  
  855.00  9.2595E-004  
  855.50  1.1366E-003  
  856.00  9.9498E-004  
  856.50  1.0046E-003  
  857.00  1.0468E-003  
  857.50  1.2440E-003  
  858.00  1.1829E-003  
  858.50  7.7249E-004  
  859.00  8.4251E-004  
  859.50  1.4121E-003  
  860.00  1.7888E-003  
  860.50  1.6211E-003  
  861.00  1.0324E-003  
  861.50  7.4585E-004  
  862.00  8.4773E-004  
  862.50  6.3093E-004  
  863.00  5.6611E-004  
  863.50  4.5067E-004  
  864.00  5.1526E-004  
  864.50  5.3628E-004  
  865.00  5.0284E-004  
  865.50  4.3849E-004  
  866.00  5.4824E-004  
  866.50  1.1064E-003  
  867.00  1.8116E-003  
  867.50  1.8917E-003  
  868.00  1.0942E-003  
  868.50  7.5151E-004  
  869.00  9.8270E-004  
  869.50  1.5724E-003  
  870.00  1.5106E-003  
  870.50  1.1160E-003  
  871.00  9.0113E-004  
  871.50  1.1353E-003  
  872.00  9.9288E-004  
  872.50  1.1151E-004  
  873.00  1.4255E-005  
  873.50  7.4524E-004  
  874.00  1.7817E-003  
  874.50  1.6040E-003  
  875.00  1.2524E-003  
  875.50  1.5835E-003  
  876.00  1.2387E-003  
  876.50  9.4628E-004  
  877.00  4.5606E-004  
  877.50  2.4319E-004  
  878.00  3.6960E-004  
  878.50  1.0378E-003  
  879.00  1.1498E-003  
  879.50  3.1239E-004  
  880.00  6.6166E-005  
  880.50  8.8452E-004  
  881.00  1.8485E-003  
  881.50  2.1928E-003  
  882.00  1.9602E-003  
  882.50  1.9387E-003  
  883.00  1.7178E-003  
  883.50  1.1204E-003  
  884.00  1.1507E-003  
  884.50  1.9214E-003  
  885.00  2.0396E-003  
  885.50  1.8276E-003  
  886.00  1.3728E-003  
  886.50  7.7489E-004  
  887.00  1.0519E-003  
  887.50  1.8227E-003  
  888.00  2.3874E-003  
  888.50  2.6530E-003  
  889.00  3.4487E-003  
  889.50  2.9375E-003  
  890.00  2.0623E-003  
  890.50  1.4914E-003  
  891.00  1.7768E-003  
  891.50  1.6308E-003  
  892.00  1.2403E-003  
  892.50  1.6929E-003  
  893.00  1.6797E-003  
  893.50  1.6611E-003  
  894.00  1.8994E-003  
  894.50  3.2110E-003  
  895.00  3.9169E-003  
  895.50  3.1206E-003  
  896.00  2.1149E-003  
  896.50  2.6444E-003  
  897.00  2.6766E-003  
  897.50  2.2557E-003  
  898.00  1.4984E-003  
  898.50  2.8298E-004  
  899.00  7.1673E-004  
  899.50  3.3147E-005  
