
# From lspdd.org
# 
# Name: DELKEELedDusktoDawnPhilipsExtérieur
# Indice spectral Valeur 
# MSI 0.63 
# SLI 0.71 
# IPI 0.76 
# Pourcentage de bleu 35.6 
# Caractéristique Valeur 
# CCT calculée (K) 4259 
# CCT du fabricant (K) 5000 
# Tension (V) 120 
# Puissance (W) 39.0 
# Efficacité lumineuse (Lum/W) 85.0 
#
# Image: '/app/system/img_2s/2720/medium_image2.JPG?1464613537'
# Image: '/app/system/img_1s/2720/medium_image1.JPG?1464613520'
# 

  273.00  0.0000E+000  
  273.50  0.0000E+000  
  274.00  0.0000E+000  
  274.50  0.0000E+000  
  275.00  0.0000E+000  
  275.50  0.0000E+000  
  276.00  0.0000E+000  
  276.50  0.0000E+000  
  277.00  0.0000E+000  
  277.50  0.0000E+000  
  278.00  0.0000E+000  
  278.50  0.0000E+000  
  279.00  0.0000E+000  
  279.50  0.0000E+000  
  280.00  0.0000E+000  
  280.50  0.0000E+000  
  281.00  0.0000E+000  
  281.50  0.0000E+000  
  282.00  0.0000E+000  
  282.50  0.0000E+000  
  283.00  0.0000E+000  
  283.50  0.0000E+000  
  284.00  0.0000E+000  
  284.50  0.0000E+000  
  285.00  0.0000E+000  
  285.50  0.0000E+000  
  286.00  0.0000E+000  
  286.50  0.0000E+000  
  287.00  0.0000E+000  
  287.50  0.0000E+000  
  288.00  0.0000E+000  
  288.50  0.0000E+000  
  289.00  0.0000E+000  
  289.50  0.0000E+000  
  290.00  0.0000E+000  
  290.50  0.0000E+000  
  291.00  0.0000E+000  
  291.50  0.0000E+000  
  292.00  0.0000E+000  
  292.50  0.0000E+000  
  293.00  0.0000E+000  
  293.50  0.0000E+000  
  294.00  0.0000E+000  
  294.50  0.0000E+000  
  295.00  0.0000E+000  
  295.50  0.0000E+000  
  296.00  0.0000E+000  
  296.50  0.0000E+000  
  297.00  0.0000E+000  
  297.50  0.0000E+000  
  298.00  0.0000E+000  
  298.50  0.0000E+000  
  299.00  0.0000E+000  
  299.50  0.0000E+000  
  300.00  1.9601E-005  
  300.50  7.8133E-005  
  301.00  1.2408E-004  
  301.50  1.5817E-004  
  302.00  2.2833E-004  
  302.50  2.4052E-004  
  303.00  2.6791E-004  
  303.50  3.2939E-004  
  304.00  3.7175E-004  
  304.50  3.8455E-004  
  305.00  4.3116E-004  
  305.50  4.3928E-004  
  306.00  4.2863E-004  
  306.50  4.1791E-004  
  307.00  3.3570E-004  
  307.50  2.7338E-004  
  308.00  2.6107E-004  
  308.50  2.5920E-004  
  309.00  3.3218E-004  
  309.50  4.2292E-004  
  310.00  4.4313E-004  
  310.50  4.4030E-004  
  311.00  3.4981E-004  
  311.50  3.6855E-005  
  312.00  0.0000E+000  
  312.50  0.0000E+000  
  313.00  0.0000E+000  
  313.50  1.4224E-004  
  314.00  3.4294E-004  
  314.50  3.6592E-004  
  315.00  3.5155E-004  
  315.50  3.7074E-004  
  316.00  3.6467E-004  
  316.50  3.5961E-004  
  317.00  4.0233E-004  
  317.50  4.5900E-004  
  318.00  4.8551E-004  
  318.50  5.8018E-004  
  319.00  6.6002E-004  
  319.50  6.5230E-004  
  320.00  5.7297E-004  
  320.50  4.9190E-004  
  321.00  4.3850E-004  
  321.50  5.2299E-004  
  322.00  6.4357E-004  
  322.50  6.3999E-004  
  323.00  6.1124E-004  
  323.50  5.0497E-004  
  324.00  3.9549E-004  
  324.50  3.4483E-004  
  325.00  3.2761E-004  
  325.50  2.9920E-004  
  326.00  3.0271E-004  
  326.50  3.1100E-004  
  327.00  3.6959E-004  
  327.50  4.5339E-004  
  328.00  4.9611E-004  
  328.50  5.4780E-004  
  329.00  5.0575E-004  
  329.50  4.7252E-004  
  330.00  4.3331E-004  
  330.50  3.9968E-004  
  331.00  3.9749E-004  
  331.50  4.3442E-004  
  332.00  4.7047E-004  
  332.50  4.5252E-004  
  333.00  4.7389E-004  
  333.50  4.4994E-004  
  334.00  4.6095E-004  
  334.50  5.2287E-004  
  335.00  5.1345E-004  
  335.50  5.0686E-004  
  336.00  4.6239E-004  
  336.50  3.9328E-004  
  337.00  4.1675E-004  
  337.50  4.5616E-004  
  338.00  4.7945E-004  
  338.50  4.8591E-004  
  339.00  4.9642E-004  
  339.50  5.1227E-004  
  340.00  5.1062E-004  
  340.50  5.0966E-004  
  341.00  4.6290E-004  
  341.50  4.4635E-004  
  342.00  4.8919E-004  
  342.50  4.8627E-004  
  343.00  4.9516E-004  
  343.50  5.3060E-004  
  344.00  5.5722E-004  
  344.50  5.5223E-004  
  345.00  5.5021E-004  
  345.50  6.0084E-004  
  346.00  6.3518E-004  
  346.50  7.0457E-004  
  347.00  6.7429E-004  
  347.50  5.7870E-004  
  348.00  4.9885E-004  
  348.50  4.3595E-004  
  349.00  4.4543E-004  
  349.50  4.7127E-004  
  350.00  5.8309E-004  
  350.50  6.6018E-004  
  351.00  6.9400E-004  
  351.50  7.6311E-004  
  352.00  8.1368E-004  
  352.50  7.9649E-004  
  353.00  7.5184E-004  
  353.50  6.7531E-004  
  354.00  6.5648E-004  
  354.50  6.9436E-004  
  355.00  7.2260E-004  
  355.50  6.9684E-004  
  356.00  6.3913E-004  
  356.50  6.2918E-004  
  357.00  6.3035E-004  
  357.50  6.7373E-004  
  358.00  7.0449E-004  
  358.50  7.3080E-004  
  359.00  7.2823E-004  
  359.50  7.2534E-004  
  360.00  7.6401E-004  
  360.50  7.8802E-004  
  361.00  8.4012E-004  
  361.50  8.2103E-004  
  362.00  8.3179E-004  
  362.50  8.9577E-004  
  363.00  9.2123E-004  
  363.50  9.0513E-004  
  364.00  8.3118E-004  
  364.50  7.2008E-004  
  365.00  7.2335E-004  
  365.50  7.5590E-004  
  366.00  7.6682E-004  
  366.50  7.6280E-004  
  367.00  7.0714E-004  
  367.50  6.7044E-004  
  368.00  6.9568E-004  
  368.50  7.6921E-004  
  369.00  8.8092E-004  
  369.50  9.8874E-004  
  370.00  1.0190E-003  
  370.50  1.0415E-003  
  371.00  9.6920E-004  
  371.50  9.1102E-004  
  372.00  9.2520E-004  
  372.50  8.9901E-004  
  373.00  9.0184E-004  
  373.50  8.4021E-004  
  374.00  7.6238E-004  
  374.50  7.7978E-004  
  375.00  7.8927E-004  
  375.50  8.3960E-004  
  376.00  8.2622E-004  
  376.50  8.6518E-004  
  377.00  9.2996E-004  
  377.50  9.9104E-004  
  378.00  1.0436E-003  
  378.50  1.0056E-003  
  379.00  1.0275E-003  
  379.50  1.0447E-003  
  380.00  1.0449E-003  
  380.50  1.0769E-003  
  381.00  1.0765E-003  
  381.50  1.0378E-003  
  382.00  1.0439E-003  
  382.50  1.0734E-003  
  383.00  1.1707E-003  
  383.50  1.2232E-003  
  384.00  1.2139E-003  
  384.50  1.1206E-003  
  385.00  1.0474E-003  
  385.50  1.0293E-003  
  386.00  1.0334E-003  
  386.50  1.0380E-003  
  387.00  1.0109E-003  
  387.50  1.0378E-003  
  388.00  1.1561E-003  
  388.50  1.2511E-003  
  389.00  1.2745E-003  
  389.50  1.2993E-003  
  390.00  1.2769E-003  
  390.50  1.3285E-003  
  391.00  1.4118E-003  
  391.50  1.4071E-003  
  392.00  1.4338E-003  
  392.50  1.4940E-003  
  393.00  1.5159E-003  
  393.50  1.5565E-003  
  394.00  1.5436E-003  
  394.50  1.4356E-003  
  395.00  1.3842E-003  
  395.50  1.4015E-003  
  396.00  1.4470E-003  
  396.50  1.5818E-003  
  397.00  1.7116E-003  
  397.50  1.7894E-003  
  398.00  1.9033E-003  
  398.50  2.0129E-003  
  399.00  1.9961E-003  
  399.50  2.0043E-003  
  400.00  2.0211E-003  
  400.50  2.1075E-003  
  401.00  2.2497E-003  
  401.50  2.3769E-003  
  402.00  2.4978E-003  
  402.50  2.6397E-003  
  403.00  2.7911E-003  
  403.50  2.9558E-003  
  404.00  3.0875E-003  
  404.50  3.1765E-003  
  405.00  3.3313E-003  
  405.50  3.5481E-003  
  406.00  3.8068E-003  
  406.50  4.0203E-003  
  407.00  4.1763E-003  
  407.50  4.3416E-003  
  408.00  4.6242E-003  
  408.50  4.9951E-003  
  409.00  5.3802E-003  
  409.50  5.7153E-003  
  410.00  6.0285E-003  
  410.50  6.3431E-003  
  411.00  6.7557E-003  
  411.50  7.2629E-003  
  412.00  7.8129E-003  
  412.50  8.3807E-003  
  413.00  8.9923E-003  
  413.50  9.6574E-003  
  414.00  1.0458E-002  
  414.50  1.1448E-002  
  415.00  1.2514E-002  
  415.50  1.3572E-002  
  416.00  1.4664E-002  
  416.50  1.5665E-002  
  417.00  1.6748E-002  
  417.50  1.7980E-002  
  418.00  1.9319E-002  
  418.50  2.0804E-002  
  419.00  2.2413E-002  
  419.50  2.4034E-002  
  420.00  2.5865E-002  
  420.50  2.7782E-002  
  421.00  2.9851E-002  
  421.50  3.2067E-002  
  422.00  3.4391E-002  
  422.50  3.6724E-002  
  423.00  3.9277E-002  
  423.50  4.2021E-002  
  424.00  4.5050E-002  
  424.50  4.8287E-002  
  425.00  5.1268E-002  
  425.50  5.4244E-002  
  426.00  5.7357E-002  
  426.50  6.0698E-002  
  427.00  6.4177E-002  
  427.50  6.7769E-002  
  428.00  7.1416E-002  
  428.50  7.5524E-002  
  429.00  7.9923E-002  
  429.50  8.4368E-002  
  430.00  8.8776E-002  
  430.50  9.3109E-002  
  431.00  9.7687E-002  
  431.50  1.0260E-001  
  432.00  1.0776E-001  
  432.50  1.1331E-001  
  433.00  1.1888E-001  
  433.50  1.2491E-001  
  434.00  1.3116E-001  
  434.50  1.3727E-001  
  435.00  1.4324E-001  
  435.50  1.4924E-001  
  436.00  1.5570E-001  
  436.50  1.6245E-001  
  437.00  1.6919E-001  
  437.50  1.7630E-001  
  438.00  1.8336E-001  
  438.50  1.9152E-001  
  439.00  1.9960E-001  
  439.50  2.0777E-001  
  440.00  2.1587E-001  
  440.50  2.2387E-001  
  441.00  2.3193E-001  
  441.50  2.3933E-001  
  442.00  2.4734E-001  
  442.50  2.5492E-001  
  443.00  2.6216E-001  
  443.50  2.6856E-001  
  444.00  2.7372E-001  
  444.50  2.7864E-001  
  445.00  2.8293E-001  
  445.50  2.8717E-001  
  446.00  2.8954E-001  
  446.50  2.9151E-001  
  447.00  2.9335E-001  
  447.50  2.9564E-001  
  448.00  2.9724E-001  
  448.50  2.9785E-001  
  449.00  2.9739E-001  
  449.50  2.9727E-001  
  450.00  2.9553E-001  
  450.50  2.9328E-001  
  451.00  2.8964E-001  
  451.50  2.8614E-001  
  452.00  2.8321E-001  
  452.50  2.8015E-001  
  453.00  2.7706E-001  
  453.50  2.7236E-001  
  454.00  2.6612E-001  
  454.50  2.5850E-001  
  455.00  2.5018E-001  
  455.50  2.4239E-001  
  456.00  2.3500E-001  
  456.50  2.2735E-001  
  457.00  2.1975E-001  
  457.50  2.1084E-001  
  458.00  2.0210E-001  
  458.50  1.9376E-001  
  459.00  1.8600E-001  
  459.50  1.7857E-001  
  460.00  1.7152E-001  
  460.50  1.6453E-001  
  461.00  1.5791E-001  
  461.50  1.5205E-001  
  462.00  1.4631E-001  
  462.50  1.4112E-001  
  463.00  1.3643E-001  
  463.50  1.3153E-001  
  464.00  1.2716E-001  
  464.50  1.2255E-001  
  465.00  1.1806E-001  
  465.50  1.1376E-001  
  466.00  1.0960E-001  
  466.50  1.0573E-001  
  467.00  1.0206E-001  
  467.50  9.8651E-002  
  468.00  9.5300E-002  
  468.50  9.1919E-002  
  469.00  8.8446E-002  
  469.50  8.5157E-002  
  470.00  8.2255E-002  
  470.50  7.9467E-002  
  471.00  7.6586E-002  
  471.50  7.3580E-002  
  472.00  7.0780E-002  
  472.50  6.8136E-002  
  473.00  6.5699E-002  
  473.50  6.3415E-002  
  474.00  6.1232E-002  
  474.50  5.9410E-002  
  475.00  5.7594E-002  
  475.50  5.5825E-002  
  476.00  5.4128E-002  
  476.50  5.2606E-002  
  477.00  5.1181E-002  
  477.50  4.9839E-002  
  478.00  4.8628E-002  
  478.50  4.7561E-002  
  479.00  4.6632E-002  
  479.50  4.5744E-002  
  480.00  4.4887E-002  
  480.50  4.4138E-002  
  481.00  4.3473E-002  
  481.50  4.2934E-002  
  482.00  4.2338E-002  
  482.50  4.1836E-002  
  483.00  4.1403E-002  
  483.50  4.1027E-002  
  484.00  4.0782E-002  
  484.50  4.0542E-002  
  485.00  4.0375E-002  
  485.50  4.0263E-002  
  486.00  4.0159E-002  
  486.50  4.0231E-002  
  487.00  4.0339E-002  
  487.50  4.0532E-002  
  488.00  4.0726E-002  
  488.50  4.1027E-002  
  489.00  4.1417E-002  
  489.50  4.1919E-002  
  490.00  4.2472E-002  
  490.50  4.3046E-002  
  491.00  4.3831E-002  
  491.50  4.4663E-002  
  492.00  4.5657E-002  
  492.50  4.6662E-002  
  493.00  4.7664E-002  
  493.50  4.8707E-002  
  494.00  4.9809E-002  
  494.50  5.1007E-002  
  495.00  5.2397E-002  
  495.50  5.3931E-002  
  496.00  5.5598E-002  
  496.50  5.7303E-002  
  497.00  5.9091E-002  
  497.50  6.1004E-002  
  498.00  6.2857E-002  
  498.50  6.4790E-002  
  499.00  6.6762E-002  
  499.50  6.8797E-002  
  500.00  7.0969E-002  
  500.50  7.3101E-002  
  501.00  7.5357E-002  
  501.50  7.7718E-002  
  502.00  8.0130E-002  
  502.50  8.2618E-002  
  503.00  8.5239E-002  
  503.50  8.7761E-002  
  504.00  9.0245E-002  
  504.50  9.2706E-002  
  505.00  9.5169E-002  
  505.50  9.7660E-002  
  506.00  9.9995E-002  
  506.50  1.0232E-001  
  507.00  1.0473E-001  
  507.50  1.0715E-001  
  508.00  1.0966E-001  
  508.50  1.1197E-001  
  509.00  1.1425E-001  
  509.50  1.1635E-001  
  510.00  1.1831E-001  
  510.50  1.2015E-001  
  511.00  1.2195E-001  
  511.50  1.2362E-001  
  512.00  1.2519E-001  
  512.50  1.2663E-001  
  513.00  1.2790E-001  
  513.50  1.2906E-001  
  514.00  1.3014E-001  
  514.50  1.3127E-001  
  515.00  1.3240E-001  
  515.50  1.3345E-001  
  516.00  1.3446E-001  
  516.50  1.3533E-001  
  517.00  1.3616E-001  
  517.50  1.3680E-001  
  518.00  1.3747E-001  
  518.50  1.3832E-001  
  519.00  1.3913E-001  
  519.50  1.4007E-001  
  520.00  1.4072E-001  
  520.50  1.4138E-001  
  521.00  1.4197E-001  
  521.50  1.4258E-001  
  522.00  1.4318E-001  
  522.50  1.4367E-001  
  523.00  1.4429E-001  
  523.50  1.4495E-001  
  524.00  1.4552E-001  
  524.50  1.4590E-001  
  525.00  1.4618E-001  
  525.50  1.4648E-001  
  526.00  1.4669E-001  
  526.50  1.4690E-001  
  527.00  1.4710E-001  
  527.50  1.4735E-001  
  528.00  1.4756E-001  
  528.50  1.4775E-001  
  529.00  1.4791E-001  
  529.50  1.4809E-001  
  530.00  1.4825E-001  
  530.50  1.4844E-001  
  531.00  1.4864E-001  
  531.50  1.4896E-001  
  532.00  1.4947E-001  
  532.50  1.4995E-001  
  533.00  1.5039E-001  
  533.50  1.5065E-001  
  534.00  1.5103E-001  
  534.50  1.5138E-001  
  535.00  1.5174E-001  
  535.50  1.5203E-001  
  536.00  1.5240E-001  
  536.50  1.5277E-001  
  537.00  1.5310E-001  
  537.50  1.5343E-001  
  538.00  1.5385E-001  
  538.50  1.5425E-001  
  539.00  1.5462E-001  
  539.50  1.5491E-001  
  540.00  1.5532E-001  
  540.50  1.5571E-001  
  541.00  1.5617E-001  
  541.50  1.5660E-001  
  542.00  1.5698E-001  
  542.50  1.5741E-001  
  543.00  1.5769E-001  
  543.50  1.5801E-001  
  544.00  1.5825E-001  
  544.50  1.5857E-001  
  545.00  1.5894E-001  
  545.50  1.5938E-001  
  546.00  1.5979E-001  
  546.50  1.6019E-001  
  547.00  1.6067E-001  
  547.50  1.6122E-001  
  548.00  1.6163E-001  
  548.50  1.6201E-001  
  549.00  1.6230E-001  
  549.50  1.6273E-001  
  550.00  1.6308E-001  
  550.50  1.6351E-001  
  551.00  1.6400E-001  
  551.50  1.6453E-001  
  552.00  1.6506E-001  
  552.50  1.6545E-001  
  553.00  1.6592E-001  
  553.50  1.6639E-001  
  554.00  1.6690E-001  
  554.50  1.6738E-001  
  555.00  1.6784E-001  
  555.50  1.6836E-001  
  556.00  1.6885E-001  
  556.50  1.6949E-001  
  557.00  1.6997E-001  
  557.50  1.7050E-001  
  558.00  1.7100E-001  
  558.50  1.7155E-001  
  559.00  1.7201E-001  
  559.50  1.7257E-001  
  560.00  1.7312E-001  
  560.50  1.7374E-001  
  561.00  1.7442E-001  
  561.50  1.7503E-001  
  562.00  1.7566E-001  
  562.50  1.7607E-001  
  563.00  1.7653E-001  
  563.50  1.7704E-001  
  564.00  1.7775E-001  
  564.50  1.7838E-001  
  565.00  1.7897E-001  
  565.50  1.7947E-001  
  566.00  1.7998E-001  
  566.50  1.8048E-001  
  567.00  1.8111E-001  
  567.50  1.8161E-001  
  568.00  1.8213E-001  
  568.50  1.8263E-001  
  569.00  1.8320E-001  
  569.50  1.8390E-001  
  570.00  1.8446E-001  
  570.50  1.8506E-001  
  571.00  1.8564E-001  
  571.50  1.8630E-001  
  572.00  1.8698E-001  
  572.50  1.8753E-001  
  573.00  1.8811E-001  
  573.50  1.8862E-001  
  574.00  1.8932E-001  
  574.50  1.8995E-001  
  575.00  1.9060E-001  
  575.50  1.9117E-001  
  576.00  1.9171E-001  
  576.50  1.9227E-001  
  577.00  1.9286E-001  
  577.50  1.9355E-001  
  578.00  1.9433E-001  
  578.50  1.9492E-001  
  579.00  1.9543E-001  
  579.50  1.9587E-001  
  580.00  1.9634E-001  
  580.50  1.9683E-001  
  581.00  1.9731E-001  
  581.50  1.9776E-001  
  582.00  1.9802E-001  
  582.50  1.9812E-001  
  583.00  1.9824E-001  
  583.50  1.9851E-001  
  584.00  1.9891E-001  
  584.50  1.9931E-001  
  585.00  1.9970E-001  
  585.50  2.0003E-001  
  586.00  2.0033E-001  
  586.50  2.0053E-001  
  587.00  2.0080E-001  
  587.50  2.0108E-001  
  588.00  2.0146E-001  
  588.50  2.0191E-001  
  589.00  2.0230E-001  
  589.50  2.0259E-001  
  590.00  2.0280E-001  
  590.50  2.0301E-001  
  591.00  2.0336E-001  
  591.50  2.0374E-001  
  592.00  2.0406E-001  
  592.50  2.0427E-001  
  593.00  2.0445E-001  
  593.50  2.0461E-001  
  594.00  2.0478E-001  
  594.50  2.0502E-001  
  595.00  2.0520E-001  
  595.50  2.0535E-001  
  596.00  2.0536E-001  
  596.50  2.0543E-001  
  597.00  2.0548E-001  
  597.50  2.0558E-001  
  598.00  2.0563E-001  
  598.50  2.0561E-001  
  599.00  2.0561E-001  
  599.50  2.0561E-001  
  600.00  2.0558E-001  
  600.50  2.0553E-001  
  601.00  2.0543E-001  
  601.50  2.0546E-001  
  602.00  2.0550E-001  
  602.50  2.0552E-001  
  603.00  2.0543E-001  
  603.50  2.0525E-001  
  604.00  2.0510E-001  
  604.50  2.0486E-001  
  605.00  2.0457E-001  
  605.50  2.0436E-001  
  606.00  2.0412E-001  
  606.50  2.0402E-001  
  607.00  2.0383E-001  
  607.50  2.0367E-001  
  608.00  2.0354E-001  
  608.50  2.0331E-001  
  609.00  2.0303E-001  
  609.50  2.0272E-001  
  610.00  2.0261E-001  
  610.50  2.0253E-001  
  611.00  2.0246E-001  
  611.50  2.0232E-001  
  612.00  2.0207E-001  
  612.50  2.0163E-001  
  613.00  2.0095E-001  
  613.50  2.0044E-001  
  614.00  2.0012E-001  
  614.50  1.9985E-001  
  615.00  1.9922E-001  
  615.50  1.9846E-001  
  616.00  1.9771E-001  
  616.50  1.9713E-001  
  617.00  1.9642E-001  
  617.50  1.9583E-001  
  618.00  1.9520E-001  
  618.50  1.9447E-001  
  619.00  1.9358E-001  
  619.50  1.9264E-001  
  620.00  1.9167E-001  
  620.50  1.9080E-001  
  621.00  1.8992E-001  
  621.50  1.8898E-001  
  622.00  1.8805E-001  
  622.50  1.8696E-001  
  623.00  1.8605E-001  
  623.50  1.8497E-001  
  624.00  1.8384E-001  
  624.50  1.8264E-001  
  625.00  1.8152E-001  
  625.50  1.8038E-001  
  626.00  1.7923E-001  
  626.50  1.7797E-001  
  627.00  1.7666E-001  
  627.50  1.7530E-001  
  628.00  1.7398E-001  
  628.50  1.7266E-001  
  629.00  1.7155E-001  
  629.50  1.7052E-001  
  630.00  1.6967E-001  
  630.50  1.6853E-001  
  631.00  1.6718E-001  
  631.50  1.6583E-001  
  632.00  1.6448E-001  
  632.50  1.6303E-001  
  633.00  1.6151E-001  
  633.50  1.6000E-001  
  634.00  1.5888E-001  
  634.50  1.5770E-001  
  635.00  1.5645E-001  
  635.50  1.5504E-001  
  636.00  1.5350E-001  
  636.50  1.5214E-001  
  637.00  1.5086E-001  
  637.50  1.4955E-001  
  638.00  1.4815E-001  
  638.50  1.4649E-001  
  639.00  1.4475E-001  
  639.50  1.4316E-001  
  640.00  1.4180E-001  
  640.50  1.4054E-001  
  641.00  1.3915E-001  
  641.50  1.3775E-001  
  642.00  1.3635E-001  
  642.50  1.3501E-001  
  643.00  1.3360E-001  
  643.50  1.3224E-001  
  644.00  1.3100E-001  
  644.50  1.2958E-001  
  645.00  1.2840E-001  
  645.50  1.2704E-001  
  646.00  1.2580E-001  
  646.50  1.2462E-001  
  647.00  1.2338E-001  
  647.50  1.2202E-001  
  648.00  1.2036E-001  
  648.50  1.1878E-001  
  649.00  1.1741E-001  
  649.50  1.1625E-001  
  650.00  1.1499E-001  
  650.50  1.1368E-001  
  651.00  1.1231E-001  
  651.50  1.1110E-001  
  652.00  1.0986E-001  
  652.50  1.0844E-001  
  653.00  1.0687E-001  
  653.50  1.0535E-001  
  654.00  1.0388E-001  
  654.50  1.0252E-001  
  655.00  1.0138E-001  
  655.50  1.0031E-001  
  656.00  9.9224E-002  
  656.50  9.8011E-002  
  657.00  9.6652E-002  
  657.50  9.5361E-002  
  658.00  9.4096E-002  
  658.50  9.2861E-002  
  659.00  9.1553E-002  
  659.50  9.0227E-002  
  660.00  8.8923E-002  
  660.50  8.7456E-002  
  661.00  8.6008E-002  
  661.50  8.4606E-002  
  662.00  8.3149E-002  
  662.50  8.1794E-002  
  663.00  8.0482E-002  
  663.50  7.9281E-002  
  664.00  7.7987E-002  
  664.50  7.6621E-002  
  665.00  7.5356E-002  
  665.50  7.3965E-002  
  666.00  7.2607E-002  
  666.50  7.1207E-002  
  667.00  7.0130E-002  
  667.50  6.9055E-002  
  668.00  6.7806E-002  
  668.50  6.6386E-002  
  669.00  6.5113E-002  
  669.50  6.3995E-002  
  670.00  6.2977E-002  
  670.50  6.1768E-002  
  671.00  6.0687E-002  
  671.50  5.9652E-002  
  672.00  5.8707E-002  
  672.50  5.7632E-002  
  673.00  5.6511E-002  
  673.50  5.5553E-002  
  674.00  5.4761E-002  
  674.50  5.3870E-002  
  675.00  5.3028E-002  
  675.50  5.2265E-002  
  676.00  5.1649E-002  
  676.50  5.0959E-002  
  677.00  5.0254E-002  
  677.50  4.9580E-002  
  678.00  4.8952E-002  
  678.50  4.8384E-002  
  679.00  4.7834E-002  
  679.50  4.7261E-002  
  680.00  4.6784E-002  
  680.50  4.6332E-002  
  681.00  4.5970E-002  
  681.50  4.5433E-002  
  682.00  4.4996E-002  
  682.50  4.4561E-002  
  683.00  4.4204E-002  
  683.50  4.3671E-002  
  684.00  4.3303E-002  
  684.50  4.2915E-002  
  685.00  4.2533E-002  
  685.50  4.1960E-002  
  686.00  4.1382E-002  
  686.50  4.0979E-002  
  687.00  4.0765E-002  
  687.50  4.0587E-002  
  688.00  4.0333E-002  
  688.50  3.9899E-002  
  689.00  3.9440E-002  
  689.50  3.8913E-002  
  690.00  3.8586E-002  
  690.50  3.8285E-002  
  691.00  3.8275E-002  
  691.50  3.8765E-002  
  692.00  4.0284E-002  
  692.50  4.2477E-002  
  693.00  4.4690E-002  
  693.50  4.6522E-002  
  694.00  4.7675E-002  
  694.50  4.7142E-002  
  695.00  4.4707E-002  
  695.50  4.1015E-002  
  696.00  3.7727E-002  
  696.50  3.5418E-002  
  697.00  3.3903E-002  
  697.50  3.2953E-002  
  698.00  3.2387E-002  
  698.50  3.2017E-002  
  699.00  3.1592E-002  
  699.50  3.1028E-002  
  700.00  3.0460E-002  
  700.50  2.9891E-002  
  701.00  2.9356E-002  
  701.50  2.8946E-002  
  702.00  2.8640E-002  
  702.50  2.8281E-002  
  703.00  2.7804E-002  
  703.50  2.7523E-002  
  704.00  2.7489E-002  
  704.50  2.7391E-002  
  705.00  2.7188E-002  
  705.50  2.6743E-002  
  706.00  2.6335E-002  
  706.50  2.6004E-002  
  707.00  2.5757E-002  
  707.50  2.5378E-002  
  708.00  2.5115E-002  
  708.50  2.4835E-002  
  709.00  2.4640E-002  
  709.50  2.4126E-002  
  710.00  2.3610E-002  
  710.50  2.3184E-002  
  711.00  2.2835E-002  
  711.50  2.2577E-002  
  712.00  2.2247E-002  
  712.50  2.2116E-002  
  713.00  2.1876E-002  
  713.50  2.1723E-002  
  714.00  2.1449E-002  
  714.50  2.1282E-002  
  715.00  2.0999E-002  
  715.50  2.0640E-002  
  716.00  2.0191E-002  
  716.50  1.9872E-002  
  717.00  1.9662E-002  
  717.50  1.9459E-002  
  718.00  1.9090E-002  
  718.50  1.8731E-002  
  719.00  1.8396E-002  
  719.50  1.8197E-002  
  720.00  1.7950E-002  
  720.50  1.7688E-002  
  721.00  1.7373E-002  
  721.50  1.7117E-002  
  722.00  1.6921E-002  
  722.50  1.6658E-002  
  723.00  1.6278E-002  
  723.50  1.5925E-002  
  724.00  1.5616E-002  
  724.50  1.5371E-002  
  725.00  1.5100E-002  
  725.50  1.4969E-002  
  726.00  1.4780E-002  
  726.50  1.4535E-002  
  727.00  1.4294E-002  
  727.50  1.4171E-002  
  728.00  1.3983E-002  
  728.50  1.3727E-002  
  729.00  1.3498E-002  
  729.50  1.3336E-002  
  730.00  1.3330E-002  
  730.50  1.3278E-002  
  731.00  1.3076E-002  
  731.50  1.2819E-002  
  732.00  1.2653E-002  
  732.50  1.2546E-002  
  733.00  1.2314E-002  
  733.50  1.2016E-002  
  734.00  1.1863E-002  
  734.50  1.1768E-002  
  735.00  1.1541E-002  
  735.50  1.1238E-002  
  736.00  1.0974E-002  
  736.50  1.0922E-002  
  737.00  1.0862E-002  
  737.50  1.0777E-002  
  738.00  1.0620E-002  
  738.50  1.0536E-002  
  739.00  1.0408E-002  
  739.50  1.0277E-002  
  740.00  9.9229E-003  
  740.50  9.6585E-003  
  741.00  9.5259E-003  
  741.50  9.5343E-003  
  742.00  9.3948E-003  
  742.50  9.1363E-003  
  743.00  9.0209E-003  
  743.50  8.9775E-003  
  744.00  8.9290E-003  
  744.50  8.8218E-003  
  745.00  8.6897E-003  
  745.50  8.5500E-003  
  746.00  8.3672E-003  
  746.50  8.2873E-003  
  747.00  8.1690E-003  
  747.50  8.0590E-003  
  748.00  7.8547E-003  
  748.50  7.7635E-003  
  749.00  7.6562E-003  
  749.50  7.6003E-003  
  750.00  7.5034E-003  
  750.50  7.1367E-003  
  751.00  6.7230E-003  
  751.50  6.6192E-003  
  752.00  6.9271E-003  
  752.50  7.1081E-003  
  753.00  7.0703E-003  
  753.50  7.0481E-003  
  754.00  6.9028E-003  
  754.50  6.8090E-003  
  755.00  6.7370E-003  
  755.50  6.6582E-003  
  756.00  6.7048E-003  
  756.50  6.7110E-003  
  757.00  6.6385E-003  
  757.50  6.4638E-003  
  758.00  6.3492E-003  
  758.50  6.1876E-003  
  759.00  6.0783E-003  
  759.50  5.9225E-003  
  760.00  5.7551E-003  
  760.50  5.6122E-003  
  761.00  5.6228E-003  
  761.50  5.6517E-003  
  762.00  5.5536E-003  
  762.50  5.4826E-003  
  763.00  5.4705E-003  
  763.50  5.3923E-003  
  764.00  5.3058E-003  
  764.50  5.2033E-003  
  765.00  5.0838E-003  
  765.50  4.9283E-003  
  766.00  4.8748E-003  
  766.50  4.7975E-003  
  767.00  4.8606E-003  
  767.50  4.9082E-003  
  768.00  4.9229E-003  
  768.50  4.7799E-003  
  769.00  4.6200E-003  
  769.50  4.5417E-003  
  770.00  4.4134E-003  
  770.50  4.3671E-003  
  771.00  4.3180E-003  
  771.50  4.3955E-003  
  772.00  4.3937E-003  
  772.50  4.3480E-003  
  773.00  4.1616E-003  
  773.50  3.9988E-003  
  774.00  3.8577E-003  
  774.50  3.7108E-003  
  775.00  3.6390E-003  
  775.50  3.5774E-003  
  776.00  3.5682E-003  
  776.50  3.5772E-003  
  777.00  3.5572E-003  
  777.50  3.5507E-003  
  778.00  3.4529E-003  
  778.50  3.2702E-003  
  779.00  3.2768E-003  
  779.50  3.3013E-003  
  780.00  3.2871E-003  
  780.50  3.3674E-003  
  781.00  3.5856E-003  
  781.50  3.5876E-003  
  782.00  3.4335E-003  
  782.50  3.2475E-003  
  783.00  3.2477E-003  
  783.50  3.0583E-003  
  784.00  2.9051E-003  
  784.50  2.8028E-003  
  785.00  2.9486E-003  
  785.50  3.0334E-003  
  786.00  2.8387E-003  
  786.50  2.6269E-003  
  787.00  2.6114E-003  
  787.50  2.5150E-003  
  788.00  2.4044E-003  
  788.50  2.4328E-003  
  789.00  2.4227E-003  
  789.50  2.4759E-003  
  790.00  2.6343E-003  
  790.50  2.7888E-003  
  791.00  2.7527E-003  
  791.50  2.6314E-003  
  792.00  2.4937E-003  
  792.50  2.5210E-003  
  793.00  2.4134E-003  
  793.50  2.4951E-003  
  794.00  2.4329E-003  
  794.50  2.2469E-003  
  795.00  1.9971E-003  
  795.50  2.0080E-003  
  796.00  2.2160E-003  
  796.50  2.3276E-003  
  797.00  2.1301E-003  
  797.50  1.9797E-003  
  798.00  1.9728E-003  
  798.50  2.1633E-003  
  799.00  2.2374E-003  
  799.50  2.3214E-003  
  800.00  2.3008E-003  
  800.50  2.1119E-003  
  801.00  1.8157E-003  
  801.50  1.6262E-003  
  802.00  1.5041E-003  
  802.50  1.4884E-003  
  803.00  1.3243E-003  
  803.50  1.3857E-003  
  804.00  1.5817E-003  
  804.50  1.7366E-003  
  805.00  1.5527E-003  
  805.50  1.3152E-003  
  806.00  1.3233E-003  
  806.50  1.3943E-003  
  807.00  1.5157E-003  
  807.50  1.6276E-003  
  808.00  1.5771E-003  
  808.50  1.5181E-003  
  809.00  1.5345E-003  
  809.50  1.2100E-003  
  810.00  1.0821E-003  
  810.50  1.1957E-003  
  811.00  1.2647E-003  
  811.50  1.4159E-003  
  812.00  1.5650E-003  
  812.50  1.6482E-003  
  813.00  1.3781E-003  
  813.50  1.2373E-003  
  814.00  1.2266E-003  
  814.50  1.0980E-003  
  815.00  1.0221E-003  
  815.50  1.0478E-003  
  816.00  1.3644E-003  
  816.50  1.1568E-003  
  817.00  1.1343E-003  
  817.50  1.2025E-003  
  818.00  1.2333E-003  
  818.50  1.4003E-003  
  819.00  1.3306E-003  
  819.50  1.3287E-003  
  820.00  1.1073E-003  
  820.50  9.1613E-004  
  821.00  9.3995E-004  
  821.50  9.9880E-004  
  822.00  1.0893E-003  
  822.50  1.0848E-003  
  823.00  1.0872E-003  
  823.50  1.1658E-003  
  824.00  1.4037E-003  
  824.50  1.3203E-003  
  825.00  8.9555E-004  
  825.50  7.1860E-004  
  826.00  6.1918E-004  
  826.50  5.0808E-004  
  827.00  5.0604E-004  
  827.50  6.0429E-004  
  828.00  7.2320E-004  
  828.50  5.3616E-004  
  829.00  3.7318E-004  
  829.50  4.4201E-004  
  830.00  7.7895E-004  
  830.50  9.4638E-004  
  831.00  6.9135E-004  
  831.50  8.4417E-004  
  832.00  1.1378E-003  
  832.50  1.1489E-003  
  833.00  7.0051E-004  
  833.50  3.7453E-004  
  834.00  2.7360E-004  
  834.50  4.6780E-004  
  835.00  7.6568E-004  
  835.50  1.0675E-003  
  836.00  1.1355E-003  
  836.50  8.4496E-004  
  837.00  8.3562E-004  
  837.50  8.4356E-004  
  838.00  5.2071E-004  
  838.50  0.0000E+000  
  839.00  0.0000E+000  
  839.50  1.5406E-006  
  840.00  2.4136E-004  
  840.50  1.7432E-004  
  841.00  0.0000E+000  
  841.50  3.0028E-004  
  842.00  7.0922E-004  
  842.50  3.9942E-004  
  843.00  2.1286E-005  
  843.50  5.3078E-004  
  844.00  8.4991E-004  
  844.50  3.5051E-004  
  845.00  0.0000E+000  
  845.50  1.2846E-004  
  846.00  4.0354E-004  
  846.50  6.0565E-004  
  847.00  4.9205E-004  
  847.50  6.6198E-004  
  848.00  4.0992E-004  
  848.50  4.7037E-004  
  849.00  4.8331E-004  
  849.50  4.0027E-004  
  850.00  2.3794E-004  
  850.50  2.4027E-005  
  851.00  3.9922E-006  
  851.50  3.7503E-004  
  852.00  7.8156E-004  
  852.50  9.4455E-004  
  853.00  7.7109E-004  
  853.50  3.3651E-004  
  854.00  1.2108E-004  
  854.50  5.8007E-005  
  855.00  5.0699E-004  
  855.50  1.3045E-003  
  856.00  1.2906E-003  
  856.50  5.4362E-004  
  857.00  3.6099E-004  
  857.50  9.8237E-004  
  858.00  9.4449E-004  
  858.50  6.2784E-004  
  859.00  6.5083E-004  
  859.50  1.0544E-003  
  860.00  1.4920E-003  
  860.50  1.7440E-003  
  861.00  1.8405E-003  
  861.50  1.8594E-003  
  862.00  1.3960E-003  
  862.50  1.0625E-003  
  863.00  1.1277E-003  
  863.50  7.0820E-004  
  864.00  0.0000E+000  
  864.50  4.0257E-005  
  865.00  6.7587E-004  
  865.50  1.2498E-003  
  866.00  1.1741E-003  
  866.50  1.0637E-003  
  867.00  1.1968E-003  
  867.50  1.6613E-003  
  868.00  1.7633E-003  
  868.50  1.5692E-003  
  869.00  1.7605E-003  
  869.50  2.0980E-003  
  870.00  1.9556E-003  
  870.50  1.4099E-003  
  871.00  1.1494E-003  
  871.50  1.7090E-003  
  872.00  2.5739E-003  
  872.50  2.5317E-003  
  873.00  1.9303E-003  
  873.50  1.5752E-003  
  874.00  2.0269E-003  
  874.50  2.1806E-003  
  875.00  2.4206E-003  
  875.50  2.9579E-003  
  876.00  2.6755E-003  
  876.50  2.0346E-003  
  877.00  1.9640E-003  
  877.50  2.9286E-003  
  878.00  3.0643E-003  
  878.50  2.6433E-003  
  879.00  2.7945E-003  
  879.50  2.9031E-003  
  880.00  2.6277E-003  
  880.50  3.0619E-003  
  881.00  3.5120E-003  
  881.50  3.7300E-003  
  882.00  3.7419E-003  
  882.50  3.6241E-003  
  883.00  3.4615E-003  
  883.50  3.3824E-003  
  884.00  4.1416E-003  
  884.50  5.0713E-003  
  885.00  4.6437E-003  
  885.50  4.0958E-003  
  886.00  3.7755E-003  
  886.50  2.9670E-003  
  887.00  3.7368E-003  
  887.50  4.5346E-003  
  888.00  4.4633E-003  
  888.50  4.4553E-003  
  889.00  5.7366E-003  
  889.50  5.6823E-003  
  890.00  4.8297E-003  
  890.50  4.2768E-003  
  891.00  4.6296E-003  
  891.50  4.8994E-003  
  892.00  4.2762E-003  
  892.50  3.8962E-003  
  893.00  3.8757E-003  
  893.50  4.4422E-003  
  894.00  5.2428E-003  
  894.50  6.0114E-003  
  895.00  6.6782E-003  
  895.50  6.4382E-003  
  896.00  5.5084E-003  
  896.50  5.2718E-003  
  897.00  5.4135E-003  
  897.50  5.5390E-003  
  898.00  4.8767E-003  
  898.50  3.4032E-003  
  899.00  3.0401E-003  
  899.50  6.9756E-005  
