
# From lspdd.org
# 
# Name: INC Rona A19 Domestique
# Indice spectral Valeur 
# MSI 0.12 
# SLI 0.34 
# IPI 0.98 
# Pourcentage de bleu 4.6 
# Caractéristique Valeur 
# CCT calculée (K) 2129 
# CCT du fabricant (K) ND 
# Tension (V) 130 
# Puissance (W) 60.0 
# Efficacité lumineuse (Lum/W) ND 
#
# Image: '/app/system/img_1s/2725/medium_image1.jpg?1612236425'
# 

  273.00  0.0000E+000  
  273.50  0.0000E+000  
  274.00  0.0000E+000  
  274.50  0.0000E+000  
  275.00  0.0000E+000  
  275.50  0.0000E+000  
  276.00  0.0000E+000  
  276.50  0.0000E+000  
  277.00  0.0000E+000  
  277.50  0.0000E+000  
  278.00  0.0000E+000  
  278.50  0.0000E+000  
  279.00  0.0000E+000  
  279.50  0.0000E+000  
  280.00  0.0000E+000  
  280.50  0.0000E+000  
  281.00  0.0000E+000  
  281.50  0.0000E+000  
  282.00  0.0000E+000  
  282.50  0.0000E+000  
  283.00  0.0000E+000  
  283.50  0.0000E+000  
  284.00  0.0000E+000  
  284.50  0.0000E+000  
  285.00  0.0000E+000  
  285.50  0.0000E+000  
  286.00  0.0000E+000  
  286.50  0.0000E+000  
  287.00  0.0000E+000  
  287.50  0.0000E+000  
  288.00  0.0000E+000  
  288.50  0.0000E+000  
  289.00  0.0000E+000  
  289.50  0.0000E+000  
  290.00  0.0000E+000  
  290.50  0.0000E+000  
  291.00  0.0000E+000  
  291.50  0.0000E+000  
  292.00  0.0000E+000  
  292.50  0.0000E+000  
  293.00  0.0000E+000  
  293.50  0.0000E+000  
  294.00  0.0000E+000  
  294.50  0.0000E+000  
  295.00  0.0000E+000  
  295.50  0.0000E+000  
  296.00  0.0000E+000  
  296.50  0.0000E+000  
  297.00  0.0000E+000  
  297.50  0.0000E+000  
  298.00  0.0000E+000  
  298.50  0.0000E+000  
  299.00  0.0000E+000  
  299.50  0.0000E+000  
  300.00  1.3399E-004  
  300.50  3.3750E-004  
  301.00  3.1631E-004  
  301.50  4.4963E-004  
  302.00  5.3214E-004  
  302.50  5.6136E-004  
  303.00  5.0169E-004  
  303.50  2.4091E-004  
  304.00  1.5670E-004  
  304.50  2.0678E-004  
  305.00  3.9379E-004  
  305.50  7.7556E-004  
  306.00  7.6896E-004  
  306.50  6.1863E-004  
  307.00  4.3482E-004  
  307.50  2.6512E-004  
  308.00  5.3318E-004  
  308.50  7.3695E-004  
  309.00  7.1867E-004  
  309.50  5.2636E-004  
  310.00  9.8932E-005  
  310.50  0.0000E+000  
  311.00  2.5410E-005  
  311.50  3.7289E-004  
  312.00  1.0159E-003  
  312.50  1.2834E-003  
  313.00  1.0818E-003  
  313.50  7.8787E-004  
  314.00  2.6947E-004  
  314.50  1.7153E-004  
  315.00  1.5847E-004  
  315.50  1.0082E-005  
  316.00  0.0000E+000  
  316.50  0.0000E+000  
  317.00  0.0000E+000  
  317.50  0.0000E+000  
  318.00  0.0000E+000  
  318.50  0.0000E+000  
  319.00  0.0000E+000  
  319.50  3.5293E-005  
  320.00  3.8078E-004  
  320.50  6.5480E-004  
  321.00  6.9513E-004  
  321.50  3.3505E-004  
  322.00  6.0056E-006  
  322.50  0.0000E+000  
  323.00  9.0504E-006  
  323.50  8.2064E-005  
  324.00  2.5671E-005  
  324.50  0.0000E+000  
  325.00  0.0000E+000  
  325.50  0.0000E+000  
  326.00  6.4423E-005  
  326.50  6.2697E-005  
  327.00  0.0000E+000  
  327.50  8.2551E-005  
  328.00  1.4322E-004  
  328.50  3.3594E-005  
  329.00  5.0600E-005  
  329.50  0.0000E+000  
  330.00  0.0000E+000  
  330.50  0.0000E+000  
  331.00  0.0000E+000  
  331.50  0.0000E+000  
  332.00  5.5181E-005  
  332.50  2.6003E-004  
  333.00  3.7885E-004  
  333.50  3.1220E-004  
  334.00  1.7247E-004  
  334.50  2.0241E-004  
  335.00  2.0645E-004  
  335.50  2.1148E-004  
  336.00  3.3721E-004  
  336.50  5.4010E-004  
  337.00  8.6301E-004  
  337.50  1.0122E-003  
  338.00  8.7976E-004  
  338.50  5.1767E-004  
  339.00  4.0401E-004  
  339.50  3.4153E-004  
  340.00  1.2465E-004  
  340.50  2.7700E-006  
  341.00  0.0000E+000  
  341.50  0.0000E+000  
  342.00  1.9694E-004  
  342.50  5.6033E-004  
  343.00  4.1750E-004  
  343.50  2.2719E-004  
  344.00  1.7847E-004  
  344.50  4.7714E-004  
  345.00  8.7157E-004  
  345.50  7.7312E-004  
  346.00  5.9531E-004  
  346.50  3.2741E-004  
  347.00  3.1449E-004  
  347.50  3.7262E-004  
  348.00  1.9808E-004  
  348.50  0.0000E+000  
  349.00  0.0000E+000  
  349.50  0.0000E+000  
  350.00  0.0000E+000  
  350.50  1.5058E-004  
  351.00  4.8109E-004  
  351.50  7.2958E-004  
  352.00  3.6963E-004  
  352.50  1.7023E-004  
  353.00  2.3915E-004  
  353.50  2.0170E-004  
  354.00  1.8394E-004  
  354.50  1.4104E-005  
  355.00  0.0000E+000  
  355.50  1.6508E-005  
  356.00  2.6265E-004  
  356.50  5.0610E-004  
  357.00  2.2969E-004  
  357.50  0.0000E+000  
  358.00  4.5984E-006  
  358.50  5.8729E-005  
  359.00  4.4549E-004  
  359.50  5.9621E-004  
  360.00  3.6676E-004  
  360.50  9.3205E-005  
  361.00  0.0000E+000  
  361.50  0.0000E+000  
  362.00  0.0000E+000  
  362.50  0.0000E+000  
  363.00  1.7598E-004  
  363.50  5.3904E-004  
  364.00  9.4503E-004  
  364.50  1.2197E-003  
  365.00  1.0320E-003  
  365.50  6.3807E-004  
  366.00  4.8339E-004  
  366.50  3.1177E-004  
  367.00  5.3989E-004  
  367.50  5.3185E-004  
  368.00  1.5564E-004  
  368.50  8.5038E-006  
  369.00  5.6828E-005  
  369.50  4.1308E-004  
  370.00  8.7899E-004  
  370.50  1.0687E-003  
  371.00  8.6491E-004  
  371.50  6.0506E-004  
  372.00  4.3724E-004  
  372.50  5.3690E-004  
  373.00  8.2553E-004  
  373.50  1.0957E-003  
  374.00  1.0539E-003  
  374.50  1.0117E-003  
  375.00  8.5787E-004  
  375.50  7.8025E-004  
  376.00  7.2798E-004  
  376.50  5.2900E-004  
  377.00  4.8663E-004  
  377.50  3.1414E-004  
  378.00  3.0131E-004  
  378.50  3.7642E-004  
  379.00  3.7776E-004  
  379.50  5.6582E-004  
  380.00  6.1308E-004  
  380.50  8.4616E-004  
  381.00  8.9875E-004  
  381.50  8.3867E-004  
  382.00  6.0330E-004  
  382.50  5.1261E-004  
  383.00  5.1578E-004  
  383.50  5.1688E-004  
  384.00  4.5808E-004  
  384.50  3.0487E-004  
  385.00  2.2771E-004  
  385.50  1.8694E-004  
  386.00  1.6851E-004  
  386.50  2.1077E-004  
  387.00  1.9628E-004  
  387.50  1.8230E-004  
  388.00  5.3530E-005  
  388.50  1.1703E-004  
  389.00  1.1020E-004  
  389.50  2.1169E-004  
  390.00  3.6480E-004  
  390.50  2.7867E-004  
  391.00  5.8782E-004  
  391.50  8.5172E-004  
  392.00  1.0545E-003  
  392.50  1.2814E-003  
  393.00  1.2556E-003  
  393.50  9.5037E-004  
  394.00  8.0180E-004  
  394.50  6.4343E-004  
  395.00  6.8584E-004  
  395.50  6.9462E-004  
  396.00  6.5690E-004  
  396.50  6.2872E-004  
  397.00  4.8217E-004  
  397.50  1.9283E-004  
  398.00  4.9199E-005  
  398.50  3.5634E-007  
  399.00  8.0891E-005  
  399.50  3.4881E-005  
  400.00  0.0000E+000  
  400.50  0.0000E+000  
  401.00  0.0000E+000  
  401.50  1.1375E-004  
  402.00  3.1286E-004  
  402.50  3.0301E-004  
  403.00  3.2342E-004  
  403.50  3.1922E-004  
  404.00  2.9593E-004  
  404.50  2.5305E-004  
  405.00  1.6656E-004  
  405.50  2.4916E-005  
  406.00  1.2320E-004  
  406.50  3.4297E-004  
  407.00  5.0614E-004  
  407.50  6.7409E-004  
  408.00  6.6543E-004  
  408.50  7.8950E-004  
  409.00  7.1714E-004  
  409.50  7.4792E-004  
  410.00  6.1312E-004  
  410.50  5.0711E-004  
  411.00  3.1294E-004  
  411.50  6.9340E-005  
  412.00  5.2818E-005  
  412.50  1.3421E-004  
  413.00  2.6003E-004  
  413.50  5.3417E-004  
  414.00  6.2316E-004  
  414.50  5.3495E-004  
  415.00  3.2927E-004  
  415.50  1.5294E-005  
  416.00  6.2652E-005  
  416.50  1.3260E-004  
  417.00  4.3679E-004  
  417.50  6.3985E-004  
  418.00  4.7287E-004  
  418.50  4.0807E-004  
  419.00  3.1949E-004  
  419.50  5.2669E-004  
  420.00  7.6597E-004  
  420.50  8.7825E-004  
  421.00  7.5100E-004  
  421.50  7.4065E-004  
  422.00  7.6028E-004  
  422.50  6.9209E-004  
  423.00  6.8920E-004  
  423.50  8.7214E-004  
  424.00  9.4088E-004  
  424.50  9.2808E-004  
  425.00  5.6223E-004  
  425.50  1.6472E-004  
  426.00  9.5982E-005  
  426.50  1.8442E-004  
  427.00  2.9154E-004  
  427.50  5.0592E-004  
  428.00  6.8479E-004  
  428.50  8.4849E-004  
  429.00  1.0914E-003  
  429.50  1.1369E-003  
  430.00  7.1136E-004  
  430.50  3.3439E-004  
  431.00  1.9699E-004  
  431.50  3.1320E-004  
  432.00  6.8944E-004  
  432.50  5.9025E-004  
  433.00  3.6289E-004  
  433.50  2.9951E-004  
  434.00  4.3930E-004  
  434.50  6.9888E-004  
  435.00  7.6196E-004  
  435.50  6.6342E-004  
  436.00  5.8026E-004  
  436.50  3.5899E-004  
  437.00  3.1219E-004  
  437.50  3.4578E-004  
  438.00  2.9043E-004  
  438.50  2.5971E-004  
  439.00  1.2552E-004  
  439.50  6.1561E-006  
  440.00  9.1122E-005  
  440.50  3.8017E-004  
  441.00  7.0229E-004  
  441.50  9.8478E-004  
  442.00  1.1813E-003  
  442.50  1.2224E-003  
  443.00  1.0599E-003  
  443.50  8.1452E-004  
  444.00  6.8401E-004  
  444.50  7.8411E-004  
  445.00  9.7948E-004  
  445.50  1.2181E-003  
  446.00  1.3687E-003  
  446.50  1.3958E-003  
  447.00  1.3289E-003  
  447.50  1.1576E-003  
  448.00  9.9756E-004  
  448.50  7.9925E-004  
  449.00  9.2110E-004  
  449.50  9.1342E-004  
  450.00  9.1680E-004  
  450.50  8.6425E-004  
  451.00  7.8890E-004  
  451.50  6.6477E-004  
  452.00  8.9600E-004  
  452.50  9.5737E-004  
  453.00  1.2225E-003  
  453.50  1.2792E-003  
  454.00  1.0490E-003  
  454.50  7.7512E-004  
  455.00  6.4230E-004  
  455.50  5.4539E-004  
  456.00  6.6011E-004  
  456.50  6.7754E-004  
  457.00  8.3967E-004  
  457.50  9.2196E-004  
  458.00  8.9455E-004  
  458.50  8.5154E-004  
  459.00  7.8037E-004  
  459.50  7.9401E-004  
  460.00  7.5885E-004  
  460.50  8.9790E-004  
  461.00  1.0384E-003  
  461.50  1.1648E-003  
  462.00  1.2274E-003  
  462.50  1.0356E-003  
  463.00  1.0040E-003  
  463.50  1.0761E-003  
  464.00  1.3057E-003  
  464.50  1.4308E-003  
  465.00  1.5598E-003  
  465.50  1.6562E-003  
  466.00  1.7583E-003  
  466.50  2.0036E-003  
  467.00  1.9565E-003  
  467.50  1.8310E-003  
  468.00  1.5472E-003  
  468.50  1.4950E-003  
  469.00  1.6365E-003  
  469.50  1.6738E-003  
  470.00  1.8343E-003  
  470.50  1.8278E-003  
  471.00  1.9608E-003  
  471.50  2.0857E-003  
  472.00  2.0324E-003  
  472.50  1.9861E-003  
  473.00  1.9403E-003  
  473.50  1.9759E-003  
  474.00  2.1340E-003  
  474.50  2.2940E-003  
  475.00  2.3426E-003  
  475.50  2.4211E-003  
  476.00  2.3482E-003  
  476.50  2.4222E-003  
  477.00  2.5260E-003  
  477.50  2.6292E-003  
  478.00  2.7529E-003  
  478.50  2.8001E-003  
  479.00  2.8797E-003  
  479.50  2.7783E-003  
  480.00  2.8393E-003  
  480.50  2.8991E-003  
  481.00  3.0292E-003  
  481.50  3.3478E-003  
  482.00  3.3860E-003  
  482.50  3.2985E-003  
  483.00  3.2009E-003  
  483.50  3.2878E-003  
  484.00  3.4768E-003  
  484.50  3.5857E-003  
  485.00  3.5661E-003  
  485.50  3.4957E-003  
  486.00  3.6024E-003  
  486.50  3.7113E-003  
  487.00  3.8347E-003  
  487.50  3.8160E-003  
  488.00  3.7221E-003  
  488.50  3.7264E-003  
  489.00  3.7885E-003  
  489.50  4.0153E-003  
  490.00  4.3343E-003  
  490.50  4.4942E-003  
  491.00  4.6694E-003  
  491.50  4.7835E-003  
  492.00  4.9532E-003  
  492.50  5.2067E-003  
  493.00  5.2404E-003  
  493.50  5.1742E-003  
  494.00  5.1285E-003  
  494.50  5.1621E-003  
  495.00  5.3035E-003  
  495.50  5.4648E-003  
  496.00  5.5712E-003  
  496.50  5.8630E-003  
  497.00  6.0822E-003  
  497.50  6.2926E-003  
  498.00  6.3860E-003  
  498.50  6.5350E-003  
  499.00  6.8052E-003  
  499.50  7.1285E-003  
  500.00  7.3718E-003  
  500.50  7.5325E-003  
  501.00  7.6439E-003  
  501.50  7.8632E-003  
  502.00  8.1181E-003  
  502.50  8.2754E-003  
  503.00  8.3098E-003  
  503.50  8.2805E-003  
  504.00  8.3515E-003  
  504.50  8.6121E-003  
  505.00  8.8631E-003  
  505.50  9.0418E-003  
  506.00  9.2457E-003  
  506.50  9.3758E-003  
  507.00  9.4935E-003  
  507.50  9.5973E-003  
  508.00  9.8453E-003  
  508.50  1.0087E-002  
  509.00  1.0274E-002  
  509.50  1.0353E-002  
  510.00  1.0625E-002  
  510.50  1.1034E-002  
  511.00  1.1520E-002  
  511.50  1.1764E-002  
  512.00  1.1777E-002  
  512.50  1.1847E-002  
  513.00  1.2046E-002  
  513.50  1.2410E-002  
  514.00  1.2641E-002  
  514.50  1.2825E-002  
  515.00  1.2954E-002  
  515.50  1.3105E-002  
  516.00  1.3254E-002  
  516.50  1.3581E-002  
  517.00  1.3855E-002  
  517.50  1.4175E-002  
  518.00  1.4265E-002  
  518.50  1.4310E-002  
  519.00  1.4406E-002  
  519.50  1.4554E-002  
  520.00  1.4846E-002  
  520.50  1.5160E-002  
  521.00  1.5436E-002  
  521.50  1.5672E-002  
  522.00  1.5815E-002  
  522.50  1.6065E-002  
  523.00  1.6320E-002  
  523.50  1.6648E-002  
  524.00  1.6896E-002  
  524.50  1.7038E-002  
  525.00  1.7138E-002  
  525.50  1.7196E-002  
  526.00  1.7325E-002  
  526.50  1.7500E-002  
  527.00  1.7680E-002  
  527.50  1.8078E-002  
  528.00  1.8439E-002  
  528.50  1.8866E-002  
  529.00  1.9234E-002  
  529.50  1.9436E-002  
  530.00  1.9665E-002  
  530.50  1.9841E-002  
  531.00  2.0094E-002  
  531.50  2.0390E-002  
  532.00  2.0680E-002  
  532.50  2.0798E-002  
  533.00  2.0910E-002  
  533.50  2.1076E-002  
  534.00  2.1159E-002  
  534.50  2.1370E-002  
  535.00  2.1561E-002  
  535.50  2.1862E-002  
  536.00  2.2297E-002  
  536.50  2.2619E-002  
  537.00  2.2908E-002  
  537.50  2.3127E-002  
  538.00  2.3206E-002  
  538.50  2.3267E-002  
  539.00  2.3537E-002  
  539.50  2.3826E-002  
  540.00  2.4205E-002  
  540.50  2.4436E-002  
  541.00  2.4637E-002  
  541.50  2.5001E-002  
  542.00  2.5289E-002  
  542.50  2.5480E-002  
  543.00  2.5716E-002  
  543.50  2.5800E-002  
  544.00  2.6048E-002  
  544.50  2.6161E-002  
  545.00  2.6298E-002  
  545.50  2.6554E-002  
  546.00  2.6880E-002  
  546.50  2.7073E-002  
  547.00  2.7279E-002  
  547.50  2.7406E-002  
  548.00  2.7726E-002  
  548.50  2.8117E-002  
  549.00  2.8278E-002  
  549.50  2.8514E-002  
  550.00  2.8642E-002  
  550.50  2.8933E-002  
  551.00  2.9202E-002  
  551.50  2.9480E-002  
  552.00  2.9715E-002  
  552.50  2.9795E-002  
  553.00  2.9850E-002  
  553.50  3.0081E-002  
  554.00  3.0548E-002  
  554.50  3.0966E-002  
  555.00  3.1302E-002  
  555.50  3.1366E-002  
  556.00  3.1585E-002  
  556.50  3.1765E-002  
  557.00  3.2130E-002  
  557.50  3.2443E-002  
  558.00  3.2886E-002  
  558.50  3.3152E-002  
  559.00  3.3277E-002  
  559.50  3.3249E-002  
  560.00  3.3445E-002  
  560.50  3.3700E-002  
  561.00  3.4039E-002  
  561.50  3.4334E-002  
  562.00  3.4551E-002  
  562.50  3.4954E-002  
  563.00  3.5355E-002  
  563.50  3.5678E-002  
  564.00  3.5817E-002  
  564.50  3.5944E-002  
  565.00  3.6076E-002  
  565.50  3.6264E-002  
  566.00  3.6337E-002  
  566.50  3.6460E-002  
  567.00  3.6722E-002  
  567.50  3.7202E-002  
  568.00  3.7698E-002  
  568.50  3.7711E-002  
  569.00  3.7695E-002  
  569.50  3.7661E-002  
  570.00  3.7989E-002  
  570.50  3.8193E-002  
  571.00  3.8060E-002  
  571.50  3.8161E-002  
  572.00  3.8455E-002  
  572.50  3.8902E-002  
  573.00  3.9487E-002  
  573.50  3.9800E-002  
  574.00  3.9944E-002  
  574.50  4.0016E-002  
  575.00  4.0045E-002  
  575.50  4.0293E-002  
  576.00  4.0486E-002  
  576.50  4.0771E-002  
  577.00  4.1161E-002  
  577.50  4.1500E-002  
  578.00  4.1516E-002  
  578.50  4.1414E-002  
  579.00  4.1351E-002  
  579.50  4.1672E-002  
  580.00  4.2053E-002  
  580.50  4.2309E-002  
  581.00  4.2576E-002  
  581.50  4.2739E-002  
  582.00  4.3176E-002  
  582.50  4.3337E-002  
  583.00  4.3256E-002  
  583.50  4.3132E-002  
  584.00  4.3294E-002  
  584.50  4.3662E-002  
  585.00  4.4026E-002  
  585.50  4.4238E-002  
  586.00  4.4486E-002  
  586.50  4.4670E-002  
  587.00  4.4773E-002  
  587.50  4.5128E-002  
  588.00  4.5568E-002  
  588.50  4.5814E-002  
  589.00  4.6008E-002  
  589.50  4.6114E-002  
  590.00  4.6185E-002  
  590.50  4.6268E-002  
  591.00  4.6212E-002  
  591.50  4.6356E-002  
  592.00  4.6661E-002  
  592.50  4.6957E-002  
  593.00  4.7380E-002  
  593.50  4.7443E-002  
  594.00  4.7616E-002  
  594.50  4.7843E-002  
  595.00  4.8041E-002  
  595.50  4.8223E-002  
  596.00  4.8267E-002  
  596.50  4.8557E-002  
  597.00  4.8730E-002  
  597.50  4.8845E-002  
  598.00  4.8722E-002  
  598.50  4.8809E-002  
  599.00  4.9070E-002  
  599.50  4.9283E-002  
  600.00  4.9578E-002  
  600.50  4.9818E-002  
  601.00  5.0253E-002  
  601.50  5.0553E-002  
  602.00  5.0509E-002  
  602.50  5.0627E-002  
  603.00  5.0804E-002  
  603.50  5.0976E-002  
  604.00  5.1193E-002  
  604.50  5.1189E-002  
  605.00  5.1338E-002  
  605.50  5.1372E-002  
  606.00  5.1355E-002  
  606.50  5.1708E-002  
  607.00  5.2055E-002  
  607.50  5.2792E-002  
  608.00  5.2984E-002  
  608.50  5.2978E-002  
  609.00  5.2919E-002  
  609.50  5.3220E-002  
  610.00  5.3607E-002  
  610.50  5.3746E-002  
  611.00  5.3656E-002  
  611.50  5.3646E-002  
  612.00  5.3797E-002  
  612.50  5.3943E-002  
  613.00  5.4026E-002  
  613.50  5.4277E-002  
  614.00  5.4440E-002  
  614.50  5.4776E-002  
  615.00  5.5232E-002  
  615.50  5.5586E-002  
  616.00  5.5711E-002  
  616.50  5.5721E-002  
  617.00  5.5815E-002  
  617.50  5.5913E-002  
  618.00  5.5808E-002  
  618.50  5.5564E-002  
  619.00  5.5568E-002  
  619.50  5.5910E-002  
  620.00  5.6260E-002  
  620.50  5.6499E-002  
  621.00  5.6512E-002  
  621.50  5.6465E-002  
  622.00  5.6509E-002  
  622.50  5.6815E-002  
  623.00  5.7058E-002  
  623.50  5.7237E-002  
  624.00  5.7243E-002  
  624.50  5.7204E-002  
  625.00  5.7457E-002  
  625.50  5.7720E-002  
  626.00  5.8176E-002  
  626.50  5.8491E-002  
  627.00  5.8497E-002  
  627.50  5.8387E-002  
  628.00  5.8190E-002  
  628.50  5.8341E-002  
  629.00  5.8324E-002  
  629.50  5.8590E-002  
  630.00  5.9082E-002  
  630.50  5.9467E-002  
  631.00  5.9711E-002  
  631.50  5.9686E-002  
  632.00  5.9807E-002  
  632.50  5.9713E-002  
  633.00  5.9628E-002  
  633.50  5.9657E-002  
  634.00  6.0223E-002  
  634.50  6.0254E-002  
  635.00  6.0460E-002  
  635.50  6.0094E-002  
  636.00  6.0300E-002  
  636.50  6.0580E-002  
  637.00  6.1048E-002  
  637.50  6.1352E-002  
  638.00  6.1374E-002  
  638.50  6.1341E-002  
  639.00  6.1514E-002  
  639.50  6.1611E-002  
  640.00  6.1922E-002  
  640.50  6.2038E-002  
  641.00  6.2160E-002  
  641.50  6.2382E-002  
  642.00  6.2571E-002  
  642.50  6.2658E-002  
  643.00  6.2596E-002  
  643.50  6.2544E-002  
  644.00  6.3008E-002  
  644.50  6.3432E-002  
  645.00  6.3977E-002  
  645.50  6.4032E-002  
  646.00  6.3797E-002  
  646.50  6.3710E-002  
  647.00  6.3672E-002  
  647.50  6.3880E-002  
  648.00  6.3887E-002  
  648.50  6.4011E-002  
  649.00  6.4399E-002  
  649.50  6.4398E-002  
  650.00  6.4322E-002  
  650.50  6.4146E-002  
  651.00  6.4370E-002  
  651.50  6.4620E-002  
  652.00  6.4993E-002  
  652.50  6.5285E-002  
  653.00  6.5736E-002  
  653.50  6.5793E-002  
  654.00  6.5592E-002  
  654.50  6.5655E-002  
  655.00  6.5863E-002  
  655.50  6.6351E-002  
  656.00  6.6298E-002  
  656.50  6.6215E-002  
  657.00  6.6199E-002  
  657.50  6.6375E-002  
  658.00  6.6375E-002  
  658.50  6.6455E-002  
  659.00  6.6279E-002  
  659.50  6.6569E-002  
  660.00  6.6869E-002  
  660.50  6.7297E-002  
  661.00  6.7288E-002  
  661.50  6.7560E-002  
  662.00  6.7786E-002  
  662.50  6.7756E-002  
  663.00  6.7207E-002  
  663.50  6.7004E-002  
  664.00  6.7446E-002  
  664.50  6.7881E-002  
  665.00  6.8303E-002  
  665.50  6.8238E-002  
  666.00  6.8390E-002  
  666.50  6.8288E-002  
  667.00  6.8441E-002  
  667.50  6.8500E-002  
  668.00  6.8657E-002  
  668.50  6.8609E-002  
  669.00  6.8400E-002  
  669.50  6.8465E-002  
  670.00  6.8819E-002  
  670.50  6.9299E-002  
  671.00  6.9470E-002  
  671.50  6.9449E-002  
  672.00  6.9410E-002  
  672.50  6.9521E-002  
  673.00  6.9878E-002  
  673.50  7.0065E-002  
  674.00  6.9944E-002  
  674.50  6.9669E-002  
  675.00  6.9812E-002  
  675.50  6.9911E-002  
  676.00  7.0076E-002  
  676.50  7.0074E-002  
  677.00  7.0611E-002  
  677.50  7.1121E-002  
  678.00  7.1219E-002  
  678.50  7.1275E-002  
  679.00  7.1090E-002  
  679.50  7.1204E-002  
  680.00  7.1458E-002  
  680.50  7.1568E-002  
  681.00  7.1642E-002  
  681.50  7.1229E-002  
  682.00  7.1431E-002  
  682.50  7.2082E-002  
  683.00  7.2731E-002  
  683.50  7.2945E-002  
  684.00  7.2852E-002  
  684.50  7.3075E-002  
  685.00  7.3135E-002  
  685.50  7.2908E-002  
  686.00  7.2395E-002  
  686.50  7.2399E-002  
  687.00  7.2661E-002  
  687.50  7.3581E-002  
  688.00  7.4091E-002  
  688.50  7.4359E-002  
  689.00  7.4055E-002  
  689.50  7.4040E-002  
  690.00  7.4181E-002  
  690.50  7.4214E-002  
  691.00  7.4194E-002  
  691.50  7.4474E-002  
  692.00  7.4903E-002  
  692.50  7.5041E-002  
  693.00  7.4799E-002  
  693.50  7.4917E-002  
  694.00  7.5558E-002  
  694.50  7.5903E-002  
  695.00  7.6182E-002  
  695.50  7.6648E-002  
  696.00  7.7190E-002  
  696.50  7.6966E-002  
  697.00  7.6660E-002  
  697.50  7.6970E-002  
  698.00  7.7718E-002  
  698.50  7.8392E-002  
  699.00  7.8221E-002  
  699.50  7.7991E-002  
  700.00  7.7528E-002  
  700.50  7.8013E-002  
  701.00  7.8394E-002  
  701.50  7.8961E-002  
  702.00  7.8842E-002  
  702.50  7.8866E-002  
  703.00  7.8924E-002  
  703.50  7.9318E-002  
  704.00  7.9613E-002  
  704.50  7.9867E-002  
  705.00  8.0122E-002  
  705.50  8.0801E-002  
  706.00  8.1172E-002  
  706.50  8.1495E-002  
  707.00  8.1577E-002  
  707.50  8.2025E-002  
  708.00  8.2414E-002  
  708.50  8.2776E-002  
  709.00  8.3194E-002  
  709.50  8.3537E-002  
  710.00  8.3702E-002  
  710.50  8.3753E-002  
  711.00  8.3464E-002  
  711.50  8.3474E-002  
  712.00  8.3473E-002  
  712.50  8.4201E-002  
  713.00  8.4846E-002  
  713.50  8.5796E-002  
  714.00  8.6114E-002  
  714.50  8.6161E-002  
  715.00  8.5711E-002  
  715.50  8.5308E-002  
  716.00  8.5438E-002  
  716.50  8.5295E-002  
  717.00  8.5472E-002  
  717.50  8.6022E-002  
  718.00  8.6793E-002  
  718.50  8.7097E-002  
  719.00  8.7237E-002  
  719.50  8.7992E-002  
  720.00  8.8665E-002  
  720.50  8.9419E-002  
  721.00  8.9596E-002  
  721.50  8.9978E-002  
  722.00  8.9425E-002  
  722.50  8.9471E-002  
  723.00  8.9578E-002  
  723.50  9.0408E-002  
  724.00  9.0782E-002  
  724.50  9.0476E-002  
  725.00  8.9849E-002  
  725.50  9.0108E-002  
  726.00  9.0508E-002  
  726.50  9.1019E-002  
  727.00  9.0984E-002  
  727.50  9.1069E-002  
  728.00  9.1488E-002  
  728.50  9.2331E-002  
  729.00  9.3384E-002  
  729.50  9.3669E-002  
  730.00  9.3678E-002  
  730.50  9.3971E-002  
  731.00  9.4685E-002  
  731.50  9.5635E-002  
  732.00  9.5943E-002  
  732.50  9.5944E-002  
  733.00  9.5368E-002  
  733.50  9.5005E-002  
  734.00  9.5376E-002  
  734.50  9.6554E-002  
  735.00  9.6770E-002  
  735.50  9.6744E-002  
  736.00  9.6322E-002  
  736.50  9.7085E-002  
  737.00  9.7364E-002  
  737.50  9.7842E-002  
  738.00  9.7692E-002  
  738.50  9.7652E-002  
  739.00  9.8053E-002  
  739.50  9.8824E-002  
  740.00  9.9389E-002  
  740.50  9.9199E-002  
  741.00  9.8998E-002  
  741.50  9.9904E-002  
  742.00  1.0099E-001  
  742.50  1.0154E-001  
  743.00  1.0162E-001  
  743.50  1.0158E-001  
  744.00  1.0149E-001  
  744.50  1.0048E-001  
  745.00  9.9705E-002  
  745.50  9.9555E-002  
  746.00  1.0018E-001  
  746.50  1.0092E-001  
  747.00  1.0134E-001  
  747.50  1.0179E-001  
  748.00  1.0193E-001  
  748.50  1.0169E-001  
  749.00  1.0131E-001  
  749.50  1.0134E-001  
  750.00  1.0186E-001  
  750.50  1.0287E-001  
  751.00  1.0358E-001  
  751.50  1.0411E-001  
  752.00  1.0470E-001  
  752.50  1.0454E-001  
  753.00  1.0421E-001  
  753.50  1.0407E-001  
  754.00  1.0486E-001  
  754.50  1.0569E-001  
  755.00  1.0614E-001  
  755.50  1.0560E-001  
  756.00  1.0480E-001  
  756.50  1.0495E-001  
  757.00  1.0555E-001  
  757.50  1.0601E-001  
  758.00  1.0639E-001  
  758.50  1.0710E-001  
  759.00  1.0743E-001  
  759.50  1.0718E-001  
  760.00  1.0727E-001  
  760.50  1.0789E-001  
  761.00  1.0879E-001  
  761.50  1.0934E-001  
  762.00  1.0953E-001  
  762.50  1.0899E-001  
  763.00  1.0826E-001  
  763.50  1.0783E-001  
  764.00  1.0828E-001  
  764.50  1.0845E-001  
  765.00  1.0896E-001  
  765.50  1.0940E-001  
  766.00  1.0960E-001  
  766.50  1.0911E-001  
  767.00  1.0915E-001  
  767.50  1.0976E-001  
  768.00  1.1072E-001  
  768.50  1.1038E-001  
  769.00  1.1010E-001  
  769.50  1.1007E-001  
  770.00  1.1051E-001  
  770.50  1.1083E-001  
  771.00  1.1130E-001  
  771.50  1.1126E-001  
  772.00  1.1144E-001  
  772.50  1.1183E-001  
  773.00  1.1222E-001  
  773.50  1.1240E-001  
  774.00  1.1273E-001  
  774.50  1.1263E-001  
  775.00  1.1244E-001  
  775.50  1.1244E-001  
  776.00  1.1344E-001  
  776.50  1.1381E-001  
  777.00  1.1408E-001  
  777.50  1.1365E-001  
  778.00  1.1268E-001  
  778.50  1.1190E-001  
  779.00  1.1167E-001  
  779.50  1.1186E-001  
  780.00  1.1336E-001  
  780.50  1.1487E-001  
  781.00  1.1504E-001  
  781.50  1.1458E-001  
  782.00  1.1400E-001  
  782.50  1.1376E-001  
  783.00  1.1322E-001  
  783.50  1.1434E-001  
  784.00  1.1558E-001  
  784.50  1.1602E-001  
  785.00  1.1587E-001  
  785.50  1.1567E-001  
  786.00  1.1500E-001  
  786.50  1.1561E-001  
  787.00  1.1687E-001  
  787.50  1.1729E-001  
  788.00  1.1750E-001  
  788.50  1.1746E-001  
  789.00  1.1717E-001  
  789.50  1.1607E-001  
  790.00  1.1531E-001  
  790.50  1.1637E-001  
  791.00  1.1789E-001  
  791.50  1.1967E-001  
  792.00  1.1927E-001  
  792.50  1.1937E-001  
  793.00  1.1746E-001  
  793.50  1.1636E-001  
  794.00  1.1718E-001  
  794.50  1.1888E-001  
  795.00  1.2010E-001  
  795.50  1.2120E-001  
  796.00  1.2125E-001  
  796.50  1.2103E-001  
  797.00  1.2026E-001  
  797.50  1.1954E-001  
  798.00  1.1860E-001  
  798.50  1.1831E-001  
  799.00  1.1780E-001  
  799.50  1.1775E-001  
  800.00  1.1780E-001  
  800.50  1.1859E-001  
  801.00  1.1969E-001  
  801.50  1.2074E-001  
  802.00  1.2090E-001  
  802.50  1.2062E-001  
  803.00  1.2045E-001  
  803.50  1.2011E-001  
  804.00  1.1910E-001  
  804.50  1.1933E-001  
  805.00  1.2025E-001  
  805.50  1.2134E-001  
  806.00  1.2150E-001  
  806.50  1.2204E-001  
  807.00  1.2196E-001  
  807.50  1.2247E-001  
  808.00  1.2236E-001  
  808.50  1.2126E-001  
  809.00  1.2091E-001  
  809.50  1.2270E-001  
  810.00  1.2312E-001  
  810.50  1.2373E-001  
  811.00  1.2469E-001  
  811.50  1.2539E-001  
  812.00  1.2482E-001  
  812.50  1.2315E-001  
  813.00  1.2218E-001  
  813.50  1.2235E-001  
  814.00  1.2334E-001  
  814.50  1.2531E-001  
  815.00  1.2692E-001  
  815.50  1.2650E-001  
  816.00  1.2477E-001  
  816.50  1.2428E-001  
  817.00  1.2448E-001  
  817.50  1.2578E-001  
  818.00  1.2511E-001  
  818.50  1.2406E-001  
  819.00  1.2424E-001  
  819.50  1.2327E-001  
  820.00  1.2391E-001  
  820.50  1.2465E-001  
  821.00  1.2581E-001  
  821.50  1.2459E-001  
  822.00  1.2487E-001  
  822.50  1.2518E-001  
  823.00  1.2491E-001  
  823.50  1.2739E-001  
  824.00  1.2855E-001  
  824.50  1.2921E-001  
  825.00  1.3016E-001  
  825.50  1.3005E-001  
  826.00  1.2765E-001  
  826.50  1.2598E-001  
  827.00  1.2532E-001  
  827.50  1.2565E-001  
  828.00  1.2749E-001  
  828.50  1.2821E-001  
  829.00  1.2764E-001  
  829.50  1.2705E-001  
  830.00  1.2574E-001  
  830.50  1.2574E-001  
  831.00  1.2732E-001  
  831.50  1.2965E-001  
  832.00  1.3108E-001  
  832.50  1.3109E-001  
  833.00  1.3031E-001  
  833.50  1.2880E-001  
  834.00  1.2865E-001  
  834.50  1.2990E-001  
  835.00  1.3129E-001  
  835.50  1.3178E-001  
  836.00  1.3225E-001  
  836.50  1.3283E-001  
  837.00  1.3203E-001  
  837.50  1.3115E-001  
  838.00  1.3066E-001  
  838.50  1.3027E-001  
  839.00  1.3150E-001  
  839.50  1.3188E-001  
  840.00  1.3095E-001  
  840.50  1.3066E-001  
  841.00  1.2960E-001  
  841.50  1.2970E-001  
  842.00  1.2938E-001  
  842.50  1.2989E-001  
  843.00  1.2995E-001  
  843.50  1.3138E-001  
  844.00  1.3150E-001  
  844.50  1.3184E-001  
  845.00  1.3233E-001  
  845.50  1.3162E-001  
  846.00  1.3016E-001  
  846.50  1.2747E-001  
  847.00  1.2801E-001  
  847.50  1.2966E-001  
  848.00  1.3130E-001  
  848.50  1.3336E-001  
  849.00  1.3494E-001  
  849.50  1.3337E-001  
  850.00  1.3371E-001  
  850.50  1.3369E-001  
  851.00  1.3437E-001  
  851.50  1.3547E-001  
  852.00  1.3657E-001  
  852.50  1.3608E-001  
  853.00  1.3680E-001  
  853.50  1.3813E-001  
  854.00  1.3659E-001  
  854.50  1.3375E-001  
  855.00  1.3439E-001  
  855.50  1.3516E-001  
  856.00  1.3334E-001  
  856.50  1.3318E-001  
  857.00  1.3332E-001  
  857.50  1.3351E-001  
  858.00  1.3202E-001  
  858.50  1.3235E-001  
  859.00  1.3429E-001  
  859.50  1.3508E-001  
  860.00  1.3643E-001  
  860.50  1.3819E-001  
  861.00  1.3742E-001  
  861.50  1.3444E-001  
  862.00  1.3422E-001  
  862.50  1.3538E-001  
  863.00  1.3542E-001  
  863.50  1.3449E-001  
  864.00  1.3372E-001  
  864.50  1.3440E-001  
  865.00  1.3340E-001  
  865.50  1.3334E-001  
  866.00  1.3299E-001  
  866.50  1.3237E-001  
  867.00  1.3224E-001  
  867.50  1.3353E-001  
  868.00  1.3640E-001  
  868.50  1.3882E-001  
  869.00  1.3703E-001  
  869.50  1.3487E-001  
  870.00  1.3584E-001  
  870.50  1.3784E-001  
  871.00  1.3757E-001  
  871.50  1.3707E-001  
  872.00  1.3903E-001  
  872.50  1.3915E-001  
  873.00  1.3638E-001  
  873.50  1.3287E-001  
  874.00  1.3397E-001  
  874.50  1.3721E-001  
  875.00  1.3828E-001  
  875.50  1.3852E-001  
  876.00  1.3817E-001  
  876.50  1.3707E-001  
  877.00  1.3592E-001  
  877.50  1.3843E-001  
  878.00  1.3945E-001  
  878.50  1.3690E-001  
  879.00  1.3760E-001  
  879.50  1.4075E-001  
  880.00  1.3789E-001  
  880.50  1.3749E-001  
  881.00  1.4002E-001  
  881.50  1.3829E-001  
  882.00  1.3693E-001  
  882.50  1.3577E-001  
  883.00  1.3336E-001  
  883.50  1.3309E-001  
  884.00  1.3297E-001  
  884.50  1.3583E-001  
  885.00  1.3992E-001  
  885.50  1.4044E-001  
  886.00  1.3997E-001  
  886.50  1.4035E-001  
  887.00  1.3749E-001  
  887.50  1.3544E-001  
  888.00  1.3633E-001  
  888.50  1.3865E-001  
  889.00  1.3819E-001  
  889.50  1.3669E-001  
  890.00  1.3603E-001  
  890.50  1.3824E-001  
  891.00  1.3828E-001  
  891.50  1.3818E-001  
  892.00  1.4085E-001  
  892.50  1.4384E-001  
  893.00  1.4217E-001  
  893.50  1.4106E-001  
  894.00  1.3768E-001  
  894.50  1.3708E-001  
  895.00  1.3930E-001  
  895.50  1.4182E-001  
  896.00  1.4037E-001  
  896.50  1.3580E-001  
  897.00  1.3080E-001  
  897.50  1.3526E-001  
  898.00  1.4031E-001  
  898.50  1.4150E-001  
  899.00  1.4218E-001  
  899.50  2.8263E-003  
