
# From lspdd.org
# 
# Name: INC Standard A19 Domestique
# Indice spectral Valeur 
# MSI 0.30 
# SLI 0.50 
# IPI 0.99 
# Pourcentage de bleu 12.2 
# Caractéristique Valeur 
# CCT calculée (K) 2521 
# CCT du fabricant (K) 2500 
# Tension (V) 130 
# Puissance (W) 250.0 
# Efficacité lumineuse (Lum/W) ND 
#
# Image: '/app/system/img_2s/2726/medium_image2.jpg?1612236430'
# Image: '/app/system/img_1s/2726/medium_image1.jpg?1612236427'
# 

  273.00  0.0000E+000  
  273.50  0.0000E+000  
  274.00  0.0000E+000  
  274.50  0.0000E+000  
  275.00  0.0000E+000  
  275.50  0.0000E+000  
  276.00  0.0000E+000  
  276.50  0.0000E+000  
  277.00  0.0000E+000  
  277.50  0.0000E+000  
  278.00  0.0000E+000  
  278.50  0.0000E+000  
  279.00  0.0000E+000  
  279.50  0.0000E+000  
  280.00  0.0000E+000  
  280.50  0.0000E+000  
  281.00  0.0000E+000  
  281.50  0.0000E+000  
  282.00  0.0000E+000  
  282.50  0.0000E+000  
  283.00  0.0000E+000  
  283.50  0.0000E+000  
  284.00  0.0000E+000  
  284.50  0.0000E+000  
  285.00  0.0000E+000  
  285.50  0.0000E+000  
  286.00  0.0000E+000  
  286.50  0.0000E+000  
  287.00  0.0000E+000  
  287.50  0.0000E+000  
  288.00  0.0000E+000  
  288.50  0.0000E+000  
  289.00  0.0000E+000  
  289.50  0.0000E+000  
  290.00  0.0000E+000  
  290.50  0.0000E+000  
  291.00  0.0000E+000  
  291.50  0.0000E+000  
  292.00  0.0000E+000  
  292.50  0.0000E+000  
  293.00  0.0000E+000  
  293.50  0.0000E+000  
  294.00  0.0000E+000  
  294.50  0.0000E+000  
  295.00  0.0000E+000  
  295.50  0.0000E+000  
  296.00  0.0000E+000  
  296.50  0.0000E+000  
  297.00  0.0000E+000  
  297.50  0.0000E+000  
  298.00  0.0000E+000  
  298.50  0.0000E+000  
  299.00  0.0000E+000  
  299.50  0.0000E+000  
  300.00  1.4926E-004  
  300.50  4.8703E-004  
  301.00  6.6847E-004  
  301.50  9.0579E-004  
  302.00  9.0316E-004  
  302.50  1.0055E-003  
  303.00  7.9687E-004  
  303.50  4.4595E-004  
  304.00  4.9279E-004  
  304.50  4.7068E-004  
  305.00  7.3876E-004  
  305.50  1.0281E-003  
  306.00  8.6965E-004  
  306.50  6.8623E-004  
  307.00  7.0773E-004  
  307.50  7.9138E-004  
  308.00  1.1402E-003  
  308.50  1.1176E-003  
  309.00  1.0238E-003  
  309.50  7.9804E-004  
  310.00  2.9010E-004  
  310.50  2.1558E-004  
  311.00  8.7439E-006  
  311.50  0.0000E+000  
  312.00  0.0000E+000  
  312.50  8.1872E-007  
  313.00  2.6566E-004  
  313.50  1.1039E-003  
  314.00  1.7176E-003  
  314.50  1.8355E-003  
  315.00  1.6759E-003  
  315.50  1.3666E-003  
  316.00  1.0929E-003  
  316.50  7.5812E-004  
  317.00  5.7753E-004  
  317.50  4.2104E-004  
  318.00  5.3312E-004  
  318.50  9.8622E-004  
  319.00  1.3006E-003  
  319.50  1.6284E-003  
  320.00  1.8431E-003  
  320.50  1.9848E-003  
  321.00  2.0341E-003  
  321.50  1.9453E-003  
  322.00  1.9689E-003  
  322.50  2.0182E-003  
  323.00  1.9786E-003  
  323.50  1.9899E-003  
  324.00  1.8492E-003  
  324.50  1.7079E-003  
  325.00  1.6876E-003  
  325.50  1.6582E-003  
  326.00  1.7185E-003  
  326.50  1.5377E-003  
  327.00  1.4907E-003  
  327.50  1.3984E-003  
  328.00  1.2247E-003  
  328.50  1.3810E-003  
  329.00  1.5374E-003  
  329.50  1.7175E-003  
  330.00  1.9274E-003  
  330.50  1.8566E-003  
  331.00  1.8971E-003  
  331.50  2.0171E-003  
  332.00  2.0471E-003  
  332.50  2.1718E-003  
  333.00  2.1602E-003  
  333.50  1.9649E-003  
  334.00  1.7578E-003  
  334.50  1.9792E-003  
  335.00  2.0984E-003  
  335.50  1.9978E-003  
  336.00  2.0607E-003  
  336.50  1.7924E-003  
  337.00  1.9365E-003  
  337.50  2.4366E-003  
  338.00  2.6839E-003  
  338.50  2.8019E-003  
  339.00  2.8892E-003  
  339.50  2.9449E-003  
  340.00  3.1300E-003  
  340.50  2.9324E-003  
  341.00  2.4531E-003  
  341.50  2.2402E-003  
  342.00  2.0868E-003  
  342.50  2.4567E-003  
  343.00  2.9221E-003  
  343.50  3.0462E-003  
  344.00  3.0404E-003  
  344.50  3.0276E-003  
  345.00  2.9890E-003  
  345.50  3.1350E-003  
  346.00  3.3599E-003  
  346.50  3.6057E-003  
  347.00  3.6639E-003  
  347.50  3.3959E-003  
  348.00  3.0734E-003  
  348.50  2.9561E-003  
  349.00  3.2212E-003  
  349.50  3.3164E-003  
  350.00  3.6006E-003  
  350.50  3.4770E-003  
  351.00  3.5308E-003  
  351.50  3.9598E-003  
  352.00  4.1830E-003  
  352.50  4.3515E-003  
  353.00  4.3041E-003  
  353.50  4.0036E-003  
  354.00  4.0931E-003  
  354.50  4.2004E-003  
  355.00  4.3615E-003  
  355.50  4.7006E-003  
  356.00  4.8241E-003  
  356.50  5.1129E-003  
  357.00  5.2257E-003  
  357.50  5.0352E-003  
  358.00  4.5480E-003  
  358.50  4.1535E-003  
  359.00  3.9427E-003  
  359.50  4.1749E-003  
  360.00  4.7573E-003  
  360.50  5.0490E-003  
  361.00  5.3519E-003  
  361.50  5.3486E-003  
  362.00  5.3729E-003  
  362.50  5.7942E-003  
  363.00  5.8729E-003  
  363.50  5.8578E-003  
  364.00  5.5281E-003  
  364.50  5.2596E-003  
  365.00  5.0679E-003  
  365.50  5.0573E-003  
  366.00  5.1952E-003  
  366.50  5.3569E-003  
  367.00  5.6019E-003  
  367.50  5.7481E-003  
  368.00  5.8988E-003  
  368.50  6.1658E-003  
  369.00  6.4770E-003  
  369.50  6.8925E-003  
  370.00  6.9350E-003  
  370.50  6.8180E-003  
  371.00  6.7410E-003  
  371.50  6.5937E-003  
  372.00  6.5367E-003  
  372.50  6.6039E-003  
  373.00  6.4546E-003  
  373.50  6.5596E-003  
  374.00  6.8071E-003  
  374.50  6.8321E-003  
  375.00  6.6303E-003  
  375.50  6.4419E-003  
  376.00  6.4182E-003  
  376.50  6.7383E-003  
  377.00  7.2112E-003  
  377.50  7.4757E-003  
  378.00  7.6336E-003  
  378.50  7.5746E-003  
  379.00  7.6340E-003  
  379.50  7.6226E-003  
  380.00  7.6926E-003  
  380.50  7.8859E-003  
  381.00  7.9709E-003  
  381.50  7.9945E-003  
  382.00  8.0323E-003  
  382.50  8.0276E-003  
  383.00  8.1311E-003  
  383.50  8.3720E-003  
  384.00  8.4598E-003  
  384.50  8.5554E-003  
  385.00  8.6785E-003  
  385.50  8.7828E-003  
  386.00  8.9607E-003  
  386.50  9.2352E-003  
  387.00  9.3211E-003  
  387.50  9.3086E-003  
  388.00  9.3903E-003  
  388.50  9.7485E-003  
  389.00  1.0087E-002  
  389.50  1.0631E-002  
  390.00  1.1089E-002  
  390.50  1.1336E-002  
  391.00  1.1516E-002  
  391.50  1.1380E-002  
  392.00  1.1073E-002  
  392.50  1.0957E-002  
  393.00  1.1042E-002  
  393.50  1.1478E-002  
  394.00  1.1614E-002  
  394.50  1.1918E-002  
  395.00  1.2165E-002  
  395.50  1.2182E-002  
  396.00  1.2322E-002  
  396.50  1.2256E-002  
  397.00  1.2472E-002  
  397.50  1.2856E-002  
  398.00  1.3266E-002  
  398.50  1.3321E-002  
  399.00  1.3166E-002  
  399.50  1.2927E-002  
  400.00  1.2926E-002  
  400.50  1.3027E-002  
  401.00  1.3006E-002  
  401.50  1.3168E-002  
  402.00  1.3372E-002  
  402.50  1.4008E-002  
  403.00  1.4666E-002  
  403.50  1.4913E-002  
  404.00  1.4946E-002  
  404.50  1.5061E-002  
  405.00  1.5484E-002  
  405.50  1.5923E-002  
  406.00  1.5986E-002  
  406.50  1.5686E-002  
  407.00  1.5359E-002  
  407.50  1.5374E-002  
  408.00  1.5823E-002  
  408.50  1.6358E-002  
  409.00  1.6917E-002  
  409.50  1.6827E-002  
  410.00  1.6819E-002  
  410.50  1.7067E-002  
  411.00  1.7452E-002  
  411.50  1.7904E-002  
  412.00  1.7958E-002  
  412.50  1.7846E-002  
  413.00  1.7740E-002  
  413.50  1.7767E-002  
  414.00  1.7913E-002  
  414.50  1.8215E-002  
  415.00  1.8630E-002  
  415.50  1.9118E-002  
  416.00  1.9543E-002  
  416.50  1.9752E-002  
  417.00  1.9793E-002  
  417.50  1.9907E-002  
  418.00  1.9781E-002  
  418.50  1.9791E-002  
  419.00  1.9865E-002  
  419.50  1.9853E-002  
  420.00  2.0379E-002  
  420.50  2.0771E-002  
  421.00  2.0933E-002  
  421.50  2.1016E-002  
  422.00  2.1198E-002  
  422.50  2.1627E-002  
  423.00  2.2237E-002  
  423.50  2.2399E-002  
  424.00  2.2364E-002  
  424.50  2.2501E-002  
  425.00  2.2415E-002  
  425.50  2.2658E-002  
  426.00  2.2991E-002  
  426.50  2.3122E-002  
  427.00  2.3220E-002  
  427.50  2.3194E-002  
  428.00  2.3299E-002  
  428.50  2.4150E-002  
  429.00  2.4930E-002  
  429.50  2.5738E-002  
  430.00  2.5813E-002  
  430.50  2.5518E-002  
  431.00  2.5236E-002  
  431.50  2.4943E-002  
  432.00  2.5043E-002  
  432.50  2.5343E-002  
  433.00  2.5900E-002  
  433.50  2.6510E-002  
  434.00  2.6988E-002  
  434.50  2.6960E-002  
  435.00  2.6954E-002  
  435.50  2.7208E-002  
  436.00  2.7581E-002  
  436.50  2.8210E-002  
  437.00  2.8407E-002  
  437.50  2.8686E-002  
  438.00  2.8874E-002  
  438.50  2.9069E-002  
  439.00  2.9541E-002  
  439.50  2.9868E-002  
  440.00  3.0309E-002  
  440.50  3.0548E-002  
  441.00  3.0385E-002  
  441.50  3.0443E-002  
  442.00  3.0409E-002  
  442.50  3.0861E-002  
  443.00  3.1435E-002  
  443.50  3.1814E-002  
  444.00  3.1949E-002  
  444.50  3.1868E-002  
  445.00  3.1881E-002  
  445.50  3.2255E-002  
  446.00  3.2806E-002  
  446.50  3.3188E-002  
  447.00  3.3364E-002  
  447.50  3.3553E-002  
  448.00  3.3875E-002  
  448.50  3.4228E-002  
  449.00  3.4722E-002  
  449.50  3.5015E-002  
  450.00  3.5056E-002  
  450.50  3.5411E-002  
  451.00  3.5697E-002  
  451.50  3.5932E-002  
  452.00  3.6231E-002  
  452.50  3.6488E-002  
  453.00  3.6934E-002  
  453.50  3.7340E-002  
  454.00  3.7421E-002  
  454.50  3.7483E-002  
  455.00  3.7770E-002  
  455.50  3.8385E-002  
  456.00  3.9195E-002  
  456.50  3.9643E-002  
  457.00  4.0116E-002  
  457.50  4.0168E-002  
  458.00  4.0527E-002  
  458.50  4.1079E-002  
  459.00  4.1649E-002  
  459.50  4.2121E-002  
  460.00  4.2251E-002  
  460.50  4.2318E-002  
  461.00  4.2704E-002  
  461.50  4.3008E-002  
  462.00  4.3182E-002  
  462.50  4.3320E-002  
  463.00  4.3495E-002  
  463.50  4.3802E-002  
  464.00  4.4269E-002  
  464.50  4.4718E-002  
  465.00  4.5489E-002  
  465.50  4.5831E-002  
  466.00  4.6362E-002  
  466.50  4.6713E-002  
  467.00  4.7353E-002  
  467.50  4.8153E-002  
  468.00  4.8778E-002  
  468.50  4.9142E-002  
  469.00  4.9333E-002  
  469.50  4.9586E-002  
  470.00  5.0345E-002  
  470.50  5.1103E-002  
  471.00  5.1723E-002  
  471.50  5.1855E-002  
  472.00  5.2088E-002  
  472.50  5.2418E-002  
  473.00  5.2948E-002  
  473.50  5.3255E-002  
  474.00  5.3674E-002  
  474.50  5.4183E-002  
  475.00  5.4607E-002  
  475.50  5.5156E-002  
  476.00  5.5245E-002  
  476.50  5.5527E-002  
  477.00  5.5991E-002  
  477.50  5.6382E-002  
  478.00  5.6627E-002  
  478.50  5.6582E-002  
  479.00  5.6547E-002  
  479.50  5.6981E-002  
  480.00  5.7742E-002  
  480.50  5.8217E-002  
  481.00  5.8216E-002  
  481.50  5.8170E-002  
  482.00  5.8377E-002  
  482.50  5.8982E-002  
  483.00  5.9407E-002  
  483.50  5.9825E-002  
  484.00  6.0293E-002  
  484.50  6.0459E-002  
  485.00  6.0798E-002  
  485.50  6.0606E-002  
  486.00  6.0741E-002  
  486.50  6.1140E-002  
  487.00  6.1423E-002  
  487.50  6.1489E-002  
  488.00  6.1580E-002  
  488.50  6.1838E-002  
  489.00  6.2129E-002  
  489.50  6.2477E-002  
  490.00  6.2574E-002  
  490.50  6.2696E-002  
  491.00  6.2759E-002  
  491.50  6.2909E-002  
  492.00  6.3294E-002  
  492.50  6.3710E-002  
  493.00  6.3963E-002  
  493.50  6.4094E-002  
  494.00  6.4143E-002  
  494.50  6.4451E-002  
  495.00  6.4707E-002  
  495.50  6.4992E-002  
  496.00  6.5294E-002  
  496.50  6.5526E-002  
  497.00  6.5837E-002  
  497.50  6.6184E-002  
  498.00  6.6463E-002  
  498.50  6.6859E-002  
  499.00  6.7250E-002  
  499.50  6.7543E-002  
  500.00  6.7917E-002  
  500.50  6.8272E-002  
  501.00  6.8780E-002  
  501.50  6.9426E-002  
  502.00  6.9976E-002  
  502.50  7.0398E-002  
  503.00  7.0843E-002  
  503.50  7.1266E-002  
  504.00  7.1705E-002  
  504.50  7.2045E-002  
  505.00  7.2229E-002  
  505.50  7.2488E-002  
  506.00  7.2752E-002  
  506.50  7.3070E-002  
  507.00  7.3378E-002  
  507.50  7.3882E-002  
  508.00  7.4565E-002  
  508.50  7.5133E-002  
  509.00  7.5737E-002  
  509.50  7.6190E-002  
  510.00  7.6704E-002  
  510.50  7.7166E-002  
  511.00  7.7506E-002  
  511.50  7.7845E-002  
  512.00  7.8130E-002  
  512.50  7.8518E-002  
  513.00  7.8922E-002  
  513.50  7.9195E-002  
  514.00  7.9537E-002  
  514.50  7.9981E-002  
  515.00  8.0648E-002  
  515.50  8.1381E-002  
  516.00  8.1766E-002  
  516.50  8.2020E-002  
  517.00  8.2365E-002  
  517.50  8.2844E-002  
  518.00  8.3595E-002  
  518.50  8.4062E-002  
  519.00  8.4552E-002  
  519.50  8.4987E-002  
  520.00  8.5565E-002  
  520.50  8.6119E-002  
  521.00  8.7036E-002  
  521.50  8.7649E-002  
  522.00  8.8265E-002  
  522.50  8.8738E-002  
  523.00  8.9331E-002  
  523.50  8.9805E-002  
  524.00  9.0175E-002  
  524.50  9.0532E-002  
  525.00  9.1208E-002  
  525.50  9.2140E-002  
  526.00  9.3014E-002  
  526.50  9.3653E-002  
  527.00  9.4148E-002  
  527.50  9.4503E-002  
  528.00  9.4823E-002  
  528.50  9.5433E-002  
  529.00  9.5983E-002  
  529.50  9.6566E-002  
  530.00  9.7387E-002  
  530.50  9.8617E-002  
  531.00  9.9718E-002  
  531.50  1.0040E-001  
  532.00  1.0055E-001  
  532.50  1.0094E-001  
  533.00  1.0143E-001  
  533.50  1.0205E-001  
  534.00  1.0269E-001  
  534.50  1.0376E-001  
  535.00  1.0471E-001  
  535.50  1.0562E-001  
  536.00  1.0599E-001  
  536.50  1.0659E-001  
  537.00  1.0735E-001  
  537.50  1.0816E-001  
  538.00  1.0908E-001  
  538.50  1.0969E-001  
  539.00  1.1023E-001  
  539.50  1.1070E-001  
  540.00  1.1120E-001  
  540.50  1.1179E-001  
  541.00  1.1244E-001  
  541.50  1.1314E-001  
  542.00  1.1400E-001  
  542.50  1.1522E-001  
  543.00  1.1643E-001  
  543.50  1.1750E-001  
  544.00  1.1821E-001  
  544.50  1.1871E-001  
  545.00  1.1910E-001  
  545.50  1.1956E-001  
  546.00  1.2013E-001  
  546.50  1.2079E-001  
  547.00  1.2180E-001  
  547.50  1.2259E-001  
  548.00  1.2311E-001  
  548.50  1.2388E-001  
  549.00  1.2476E-001  
  549.50  1.2580E-001  
  550.00  1.2659E-001  
  550.50  1.2730E-001  
  551.00  1.2821E-001  
  551.50  1.2883E-001  
  552.00  1.2943E-001  
  552.50  1.3018E-001  
  553.00  1.3112E-001  
  553.50  1.3199E-001  
  554.00  1.3251E-001  
  554.50  1.3302E-001  
  555.00  1.3367E-001  
  555.50  1.3441E-001  
  556.00  1.3535E-001  
  556.50  1.3602E-001  
  557.00  1.3703E-001  
  557.50  1.3792E-001  
  558.00  1.3893E-001  
  558.50  1.4004E-001  
  559.00  1.4112E-001  
  559.50  1.4232E-001  
  560.00  1.4328E-001  
  560.50  1.4352E-001  
  561.00  1.4393E-001  
  561.50  1.4463E-001  
  562.00  1.4555E-001  
  562.50  1.4660E-001  
  563.00  1.4731E-001  
  563.50  1.4806E-001  
  564.00  1.4868E-001  
  564.50  1.4921E-001  
  565.00  1.4972E-001  
  565.50  1.5076E-001  
  566.00  1.5184E-001  
  566.50  1.5275E-001  
  567.00  1.5342E-001  
  567.50  1.5393E-001  
  568.00  1.5435E-001  
  568.50  1.5489E-001  
  569.00  1.5542E-001  
  569.50  1.5609E-001  
  570.00  1.5684E-001  
  570.50  1.5747E-001  
  571.00  1.5820E-001  
  571.50  1.5920E-001  
  572.00  1.6023E-001  
  572.50  1.6138E-001  
  573.00  1.6249E-001  
  573.50  1.6317E-001  
  574.00  1.6389E-001  
  574.50  1.6424E-001  
  575.00  1.6460E-001  
  575.50  1.6513E-001  
  576.00  1.6622E-001  
  576.50  1.6753E-001  
  577.00  1.6862E-001  
  577.50  1.6908E-001  
  578.00  1.6917E-001  
  578.50  1.6976E-001  
  579.00  1.7044E-001  
  579.50  1.7167E-001  
  580.00  1.7263E-001  
  580.50  1.7327E-001  
  581.00  1.7376E-001  
  581.50  1.7424E-001  
  582.00  1.7497E-001  
  582.50  1.7579E-001  
  583.00  1.7654E-001  
  583.50  1.7719E-001  
  584.00  1.7794E-001  
  584.50  1.7860E-001  
  585.00  1.7960E-001  
  585.50  1.8019E-001  
  586.00  1.8051E-001  
  586.50  1.8068E-001  
  587.00  1.8128E-001  
  587.50  1.8247E-001  
  588.00  1.8358E-001  
  588.50  1.8479E-001  
  589.00  1.8539E-001  
  589.50  1.8620E-001  
  590.00  1.8653E-001  
  590.50  1.8711E-001  
  591.00  1.8757E-001  
  591.50  1.8854E-001  
  592.00  1.8939E-001  
  592.50  1.9030E-001  
  593.00  1.9092E-001  
  593.50  1.9138E-001  
  594.00  1.9218E-001  
  594.50  1.9309E-001  
  595.00  1.9449E-001  
  595.50  1.9565E-001  
  596.00  1.9636E-001  
  596.50  1.9644E-001  
  597.00  1.9648E-001  
  597.50  1.9696E-001  
  598.00  1.9752E-001  
  598.50  1.9792E-001  
  599.00  1.9860E-001  
  599.50  1.9937E-001  
  600.00  2.0024E-001  
  600.50  2.0075E-001  
  601.00  2.0154E-001  
  601.50  2.0209E-001  
  602.00  2.0258E-001  
  602.50  2.0319E-001  
  603.00  2.0352E-001  
  603.50  2.0388E-001  
  604.00  2.0423E-001  
  604.50  2.0517E-001  
  605.00  2.0628E-001  
  605.50  2.0691E-001  
  606.00  2.0702E-001  
  606.50  2.0769E-001  
  607.00  2.0812E-001  
  607.50  2.0879E-001  
  608.00  2.0933E-001  
  608.50  2.1022E-001  
  609.00  2.1122E-001  
  609.50  2.1232E-001  
  610.00  2.1307E-001  
  610.50  2.1350E-001  
  611.00  2.1389E-001  
  611.50  2.1428E-001  
  612.00  2.1508E-001  
  612.50  2.1538E-001  
  613.00  2.1584E-001  
  613.50  2.1645E-001  
  614.00  2.1763E-001  
  614.50  2.1850E-001  
  615.00  2.1860E-001  
  615.50  2.1859E-001  
  616.00  2.1896E-001  
  616.50  2.1958E-001  
  617.00  2.1997E-001  
  617.50  2.2042E-001  
  618.00  2.2111E-001  
  618.50  2.2191E-001  
  619.00  2.2226E-001  
  619.50  2.2256E-001  
  620.00  2.2289E-001  
  620.50  2.2340E-001  
  621.00  2.2396E-001  
  621.50  2.2445E-001  
  622.00  2.2495E-001  
  622.50  2.2575E-001  
  623.00  2.2675E-001  
  623.50  2.2736E-001  
  624.00  2.2734E-001  
  624.50  2.2715E-001  
  625.00  2.2760E-001  
  625.50  2.2861E-001  
  626.00  2.2932E-001  
  626.50  2.2958E-001  
  627.00  2.2968E-001  
  627.50  2.3005E-001  
  628.00  2.3110E-001  
  628.50  2.3205E-001  
  629.00  2.3256E-001  
  629.50  2.3333E-001  
  630.00  2.3404E-001  
  630.50  2.3478E-001  
  631.00  2.3486E-001  
  631.50  2.3550E-001  
  632.00  2.3626E-001  
  632.50  2.3682E-001  
  633.00  2.3677E-001  
  633.50  2.3712E-001  
  634.00  2.3826E-001  
  634.50  2.3923E-001  
  635.00  2.3933E-001  
  635.50  2.3880E-001  
  636.00  2.3897E-001  
  636.50  2.3998E-001  
  637.00  2.4043E-001  
  637.50  2.4081E-001  
  638.00  2.4108E-001  
  638.50  2.4196E-001  
  639.00  2.4245E-001  
  639.50  2.4301E-001  
  640.00  2.4375E-001  
  640.50  2.4406E-001  
  641.00  2.4432E-001  
  641.50  2.4472E-001  
  642.00  2.4569E-001  
  642.50  2.4685E-001  
  643.00  2.4793E-001  
  643.50  2.4918E-001  
  644.00  2.4980E-001  
  644.50  2.4929E-001  
  645.00  2.4902E-001  
  645.50  2.4882E-001  
  646.00  2.4933E-001  
  646.50  2.4993E-001  
  647.00  2.5093E-001  
  647.50  2.5191E-001  
  648.00  2.5219E-001  
  648.50  2.5264E-001  
  649.00  2.5329E-001  
  649.50  2.5441E-001  
  650.00  2.5476E-001  
  650.50  2.5563E-001  
  651.00  2.5613E-001  
  651.50  2.5677E-001  
  652.00  2.5750E-001  
  652.50  2.5749E-001  
  653.00  2.5761E-001  
  653.50  2.5746E-001  
  654.00  2.5802E-001  
  654.50  2.5880E-001  
  655.00  2.5886E-001  
  655.50  2.5915E-001  
  656.00  2.5930E-001  
  656.50  2.5942E-001  
  657.00  2.5952E-001  
  657.50  2.6001E-001  
  658.00  2.6103E-001  
  658.50  2.6183E-001  
  659.00  2.6222E-001  
  659.50  2.6243E-001  
  660.00  2.6319E-001  
  660.50  2.6345E-001  
  661.00  2.6419E-001  
  661.50  2.6459E-001  
  662.00  2.6523E-001  
  662.50  2.6524E-001  
  663.00  2.6583E-001  
  663.50  2.6655E-001  
  664.00  2.6708E-001  
  664.50  2.6711E-001  
  665.00  2.6712E-001  
  665.50  2.6738E-001  
  666.00  2.6733E-001  
  666.50  2.6729E-001  
  667.00  2.6749E-001  
  667.50  2.6725E-001  
  668.00  2.6711E-001  
  668.50  2.6751E-001  
  669.00  2.6858E-001  
  669.50  2.6957E-001  
  670.00  2.6977E-001  
  670.50  2.7009E-001  
  671.00  2.7022E-001  
  671.50  2.7018E-001  
  672.00  2.6968E-001  
  672.50  2.7025E-001  
  673.00  2.7132E-001  
  673.50  2.7211E-001  
  674.00  2.7156E-001  
  674.50  2.7101E-001  
  675.00  2.7139E-001  
  675.50  2.7222E-001  
  676.00  2.7263E-001  
  676.50  2.7283E-001  
  677.00  2.7296E-001  
  677.50  2.7299E-001  
  678.00  2.7225E-001  
  678.50  2.7189E-001  
  679.00  2.7249E-001  
  679.50  2.7386E-001  
  680.00  2.7441E-001  
  680.50  2.7431E-001  
  681.00  2.7406E-001  
  681.50  2.7460E-001  
  682.00  2.7547E-001  
  682.50  2.7602E-001  
  683.00  2.7564E-001  
  683.50  2.7477E-001  
  684.00  2.7426E-001  
  684.50  2.7439E-001  
  685.00  2.7455E-001  
  685.50  2.7483E-001  
  686.00  2.7526E-001  
  686.50  2.7576E-001  
  687.00  2.7625E-001  
  687.50  2.7663E-001  
  688.00  2.7720E-001  
  688.50  2.7765E-001  
  689.00  2.7815E-001  
  689.50  2.7847E-001  
  690.00  2.7863E-001  
  690.50  2.7925E-001  
  691.00  2.7877E-001  
  691.50  2.7857E-001  
  692.00  2.7875E-001  
  692.50  2.7951E-001  
  693.00  2.7933E-001  
  693.50  2.7903E-001  
  694.00  2.7912E-001  
  694.50  2.7945E-001  
  695.00  2.7946E-001  
  695.50  2.7949E-001  
  696.00  2.7978E-001  
  696.50  2.8085E-001  
  697.00  2.8157E-001  
  697.50  2.8242E-001  
  698.00  2.8202E-001  
  698.50  2.8163E-001  
  699.00  2.8051E-001  
  699.50  2.8049E-001  
  700.00  2.8164E-001  
  700.50  2.8281E-001  
  701.00  2.8377E-001  
  701.50  2.8401E-001  
  702.00  2.8440E-001  
  702.50  2.8468E-001  
  703.00  2.8458E-001  
  703.50  2.8461E-001  
  704.00  2.8467E-001  
  704.50  2.8469E-001  
  705.00  2.8404E-001  
  705.50  2.8366E-001  
  706.00  2.8371E-001  
  706.50  2.8446E-001  
  707.00  2.8498E-001  
  707.50  2.8578E-001  
  708.00  2.8602E-001  
  708.50  2.8635E-001  
  709.00  2.8592E-001  
  709.50  2.8622E-001  
  710.00  2.8610E-001  
  710.50  2.8691E-001  
  711.00  2.8769E-001  
  711.50  2.8859E-001  
  712.00  2.8885E-001  
  712.50  2.8884E-001  
  713.00  2.8886E-001  
  713.50  2.8902E-001  
  714.00  2.8936E-001  
  714.50  2.8920E-001  
  715.00  2.8937E-001  
  715.50  2.8946E-001  
  716.00  2.8978E-001  
  716.50  2.8992E-001  
  717.00  2.9019E-001  
  717.50  2.9042E-001  
  718.00  2.9072E-001  
  718.50  2.9102E-001  
  719.00  2.9151E-001  
  719.50  2.9130E-001  
  720.00  2.9072E-001  
  720.50  2.9042E-001  
  721.00  2.9067E-001  
  721.50  2.9217E-001  
  722.00  2.9258E-001  
  722.50  2.9192E-001  
  723.00  2.9106E-001  
  723.50  2.9146E-001  
  724.00  2.9269E-001  
  724.50  2.9366E-001  
  725.00  2.9393E-001  
  725.50  2.9339E-001  
  726.00  2.9255E-001  
  726.50  2.9238E-001  
  727.00  2.9316E-001  
  727.50  2.9442E-001  
  728.00  2.9546E-001  
  728.50  2.9548E-001  
  729.00  2.9499E-001  
  729.50  2.9497E-001  
  730.00  2.9603E-001  
  730.50  2.9702E-001  
  731.00  2.9707E-001  
  731.50  2.9697E-001  
  732.00  2.9703E-001  
  732.50  2.9778E-001  
  733.00  2.9767E-001  
  733.50  2.9709E-001  
  734.00  2.9717E-001  
  734.50  2.9802E-001  
  735.00  2.9842E-001  
  735.50  2.9815E-001  
  736.00  2.9827E-001  
  736.50  2.9884E-001  
  737.00  2.9818E-001  
  737.50  2.9829E-001  
  738.00  2.9846E-001  
  738.50  2.9937E-001  
  739.00  2.9982E-001  
  739.50  2.9974E-001  
  740.00  2.9908E-001  
  740.50  2.9748E-001  
  741.00  2.9721E-001  
  741.50  2.9830E-001  
  742.00  2.9964E-001  
  742.50  2.9914E-001  
  743.00  2.9797E-001  
  743.50  2.9809E-001  
  744.00  2.9958E-001  
  744.50  3.0090E-001  
  745.00  3.0056E-001  
  745.50  2.9901E-001  
  746.00  2.9841E-001  
  746.50  2.9899E-001  
  747.00  3.0057E-001  
  747.50  3.0257E-001  
  748.00  3.0251E-001  
  748.50  3.0228E-001  
  749.00  3.0201E-001  
  749.50  3.0280E-001  
  750.00  3.0318E-001  
  750.50  3.0338E-001  
  751.00  3.0372E-001  
  751.50  3.0372E-001  
  752.00  3.0428E-001  
  752.50  3.0476E-001  
  753.00  3.0471E-001  
  753.50  3.0366E-001  
  754.00  3.0321E-001  
  754.50  3.0371E-001  
  755.00  3.0444E-001  
  755.50  3.0410E-001  
  756.00  3.0369E-001  
  756.50  3.0433E-001  
  757.00  3.0513E-001  
  757.50  3.0494E-001  
  758.00  3.0434E-001  
  758.50  3.0517E-001  
  759.00  3.0582E-001  
  759.50  3.0663E-001  
  760.00  3.0677E-001  
  760.50  3.0706E-001  
  761.00  3.0608E-001  
  761.50  3.0630E-001  
  762.00  3.0810E-001  
  762.50  3.0893E-001  
  763.00  3.0832E-001  
  763.50  3.0596E-001  
  764.00  3.0634E-001  
  764.50  3.0720E-001  
  765.00  3.0842E-001  
  765.50  3.0851E-001  
  766.00  3.0842E-001  
  766.50  3.0954E-001  
  767.00  3.1060E-001  
  767.50  3.0975E-001  
  768.00  3.0885E-001  
  768.50  3.0846E-001  
  769.00  3.0857E-001  
  769.50  3.0765E-001  
  770.00  3.0787E-001  
  770.50  3.0999E-001  
  771.00  3.1189E-001  
  771.50  3.1200E-001  
  772.00  3.1124E-001  
  772.50  3.1126E-001  
  773.00  3.1135E-001  
  773.50  3.1177E-001  
  774.00  3.1260E-001  
  774.50  3.1278E-001  
  775.00  3.1129E-001  
  775.50  3.0982E-001  
  776.00  3.0919E-001  
  776.50  3.0900E-001  
  777.00  3.0977E-001  
  777.50  3.1069E-001  
  778.00  3.1104E-001  
  778.50  3.0969E-001  
  779.00  3.1074E-001  
  779.50  3.1299E-001  
  780.00  3.1468E-001  
  780.50  3.1486E-001  
  781.00  3.1326E-001  
  781.50  3.1098E-001  
  782.00  3.1000E-001  
  782.50  3.1090E-001  
  783.00  3.1338E-001  
  783.50  3.1490E-001  
  784.00  3.1573E-001  
  784.50  3.1480E-001  
  785.00  3.1370E-001  
  785.50  3.1312E-001  
  786.00  3.1375E-001  
  786.50  3.1538E-001  
  787.00  3.1814E-001  
  787.50  3.1927E-001  
  788.00  3.1949E-001  
  788.50  3.1729E-001  
  789.00  3.1764E-001  
  789.50  3.1864E-001  
  790.00  3.1935E-001  
  790.50  3.1830E-001  
  791.00  3.1802E-001  
  791.50  3.1845E-001  
  792.00  3.1832E-001  
  792.50  3.1873E-001  
  793.00  3.1819E-001  
  793.50  3.1898E-001  
  794.00  3.1834E-001  
  794.50  3.1913E-001  
  795.00  3.1952E-001  
  795.50  3.2084E-001  
  796.00  3.2243E-001  
  796.50  3.2235E-001  
  797.00  3.2248E-001  
  797.50  3.2324E-001  
  798.00  3.2299E-001  
  798.50  3.2141E-001  
  799.00  3.2041E-001  
  799.50  3.2008E-001  
  800.00  3.2052E-001  
  800.50  3.2034E-001  
  801.00  3.2019E-001  
  801.50  3.2093E-001  
  802.00  3.2183E-001  
  802.50  3.2063E-001  
  803.00  3.1957E-001  
  803.50  3.1950E-001  
  804.00  3.2074E-001  
  804.50  3.2095E-001  
  805.00  3.2172E-001  
  805.50  3.2215E-001  
  806.00  3.2403E-001  
  806.50  3.2405E-001  
  807.00  3.2272E-001  
  807.50  3.2273E-001  
  808.00  3.2516E-001  
  808.50  3.2660E-001  
  809.00  3.2589E-001  
  809.50  3.2543E-001  
  810.00  3.2563E-001  
  810.50  3.2573E-001  
  811.00  3.2674E-001  
  811.50  3.2833E-001  
  812.00  3.2934E-001  
  812.50  3.3043E-001  
  813.00  3.3043E-001  
  813.50  3.2839E-001  
  814.00  3.2667E-001  
  814.50  3.2483E-001  
  815.00  3.2636E-001  
  815.50  3.2820E-001  
  816.00  3.3110E-001  
  816.50  3.3155E-001  
  817.00  3.3004E-001  
  817.50  3.2839E-001  
  818.00  3.2737E-001  
  818.50  3.2766E-001  
  819.00  3.2673E-001  
  819.50  3.2943E-001  
  820.00  3.3032E-001  
  820.50  3.3073E-001  
  821.00  3.3163E-001  
  821.50  3.3197E-001  
  822.00  3.3269E-001  
  822.50  3.3253E-001  
  823.00  3.3197E-001  
  823.50  3.3230E-001  
  824.00  3.3342E-001  
  824.50  3.3428E-001  
  825.00  3.3426E-001  
  825.50  3.3373E-001  
  826.00  3.3213E-001  
  826.50  3.3199E-001  
  827.00  3.3466E-001  
  827.50  3.3825E-001  
  828.00  3.3876E-001  
  828.50  3.3610E-001  
  829.00  3.3467E-001  
  829.50  3.3608E-001  
  830.00  3.3648E-001  
  830.50  3.3630E-001  
  831.00  3.3671E-001  
  831.50  3.3748E-001  
  832.00  3.3735E-001  
  832.50  3.3719E-001  
  833.00  3.3808E-001  
  833.50  3.3894E-001  
  834.00  3.3812E-001  
  834.50  3.3763E-001  
  835.00  3.3620E-001  
  835.50  3.3619E-001  
  836.00  3.3639E-001  
  836.50  3.3551E-001  
  837.00  3.3498E-001  
  837.50  3.3704E-001  
  838.00  3.4055E-001  
  838.50  3.4084E-001  
  839.00  3.4149E-001  
  839.50  3.4183E-001  
  840.00  3.4013E-001  
  840.50  3.3865E-001  
  841.00  3.4050E-001  
  841.50  3.4278E-001  
  842.00  3.4231E-001  
  842.50  3.4130E-001  
  843.00  3.4251E-001  
  843.50  3.4208E-001  
  844.00  3.4061E-001  
  844.50  3.4093E-001  
  845.00  3.4275E-001  
  845.50  3.4447E-001  
  846.00  3.4478E-001  
  846.50  3.4440E-001  
  847.00  3.4494E-001  
  847.50  3.4702E-001  
  848.00  3.4606E-001  
  848.50  3.4488E-001  
  849.00  3.4606E-001  
  849.50  3.4754E-001  
  850.00  3.4603E-001  
  850.50  3.4473E-001  
  851.00  3.4552E-001  
  851.50  3.4653E-001  
  852.00  3.4723E-001  
  852.50  3.4768E-001  
  853.00  3.4773E-001  
  853.50  3.4851E-001  
  854.00  3.4978E-001  
  854.50  3.4919E-001  
  855.00  3.5074E-001  
  855.50  3.4990E-001  
  856.00  3.4907E-001  
  856.50  3.5131E-001  
  857.00  3.5377E-001  
  857.50  3.5055E-001  
  858.00  3.4910E-001  
  858.50  3.4929E-001  
  859.00  3.5128E-001  
  859.50  3.5298E-001  
  860.00  3.5704E-001  
  860.50  3.5624E-001  
  861.00  3.5587E-001  
  861.50  3.5414E-001  
  862.00  3.5399E-001  
  862.50  3.5658E-001  
  863.00  3.5704E-001  
  863.50  3.5523E-001  
  864.00  3.5612E-001  
  864.50  3.5648E-001  
  865.00  3.5558E-001  
  865.50  3.5553E-001  
  866.00  3.5613E-001  
  866.50  3.5487E-001  
  867.00  3.5247E-001  
  867.50  3.4928E-001  
  868.00  3.5213E-001  
  868.50  3.5805E-001  
  869.00  3.5945E-001  
  869.50  3.5651E-001  
  870.00  3.5570E-001  
  870.50  3.5935E-001  
  871.00  3.6055E-001  
  871.50  3.5855E-001  
  872.00  3.5849E-001  
  872.50  3.6096E-001  
  873.00  3.6131E-001  
  873.50  3.5911E-001  
  874.00  3.5535E-001  
  874.50  3.5388E-001  
  875.00  3.5324E-001  
  875.50  3.5512E-001  
  876.00  3.5876E-001  
  876.50  3.6238E-001  
  877.00  3.6104E-001  
  877.50  3.5844E-001  
  878.00  3.5770E-001  
  878.50  3.6238E-001  
  879.00  3.6280E-001  
  879.50  3.6215E-001  
  880.00  3.6362E-001  
  880.50  3.6639E-001  
  881.00  3.6994E-001  
  881.50  3.6452E-001  
  882.00  3.5862E-001  
  882.50  3.5946E-001  
  883.00  3.6663E-001  
  883.50  3.7256E-001  
  884.00  3.7251E-001  
  884.50  3.6878E-001  
  885.00  3.7091E-001  
  885.50  3.7292E-001  
  886.00  3.6910E-001  
  886.50  3.6228E-001  
  887.00  3.6419E-001  
  887.50  3.6979E-001  
  888.00  3.7152E-001  
  888.50  3.6844E-001  
  889.00  3.6673E-001  
  889.50  3.6794E-001  
  890.00  3.6955E-001  
  890.50  3.6983E-001  
  891.00  3.6847E-001  
  891.50  3.6891E-001  
  892.00  3.7010E-001  
  892.50  3.7321E-001  
  893.00  3.7400E-001  
  893.50  3.7221E-001  
  894.00  3.6832E-001  
  894.50  3.6578E-001  
  895.00  3.6758E-001  
  895.50  3.7075E-001  
  896.00  3.7235E-001  
  896.50  3.7218E-001  
  897.00  3.6881E-001  
  897.50  3.6754E-001  
  898.00  3.6791E-001  
  898.50  3.7080E-001  
  899.00  3.6851E-001  
  899.50  7.2965E-003  
