
# From lspdd.org
# 
# Name: INC GE PAR38-Reflector Domestique
# Indice spectral Valeur 
# MSI 0.31 
# SLI 0.51 
# IPI 0.97 
# Pourcentage de bleu 13.1 
# Caractéristique Valeur 
# CCT calculée (K) 2593 
# CCT du fabricant (K) 2500 
# Tension (V) 130 
# Puissance (W) 250.0 
# Efficacité lumineuse (Lum/W) ND 
#
# Image: '/app/system/img_2s/2727/medium_image2.jpg?1612236438'
# Image: '/app/system/img_1s/2727/medium_image1.jpg?1612236434'
# 

  273.00  0.0000E+000  
  273.50  0.0000E+000  
  274.00  0.0000E+000  
  274.50  0.0000E+000  
  275.00  0.0000E+000  
  275.50  0.0000E+000  
  276.00  0.0000E+000  
  276.50  0.0000E+000  
  277.00  0.0000E+000  
  277.50  0.0000E+000  
  278.00  0.0000E+000  
  278.50  0.0000E+000  
  279.00  0.0000E+000  
  279.50  0.0000E+000  
  280.00  0.0000E+000  
  280.50  0.0000E+000  
  281.00  0.0000E+000  
  281.50  0.0000E+000  
  282.00  0.0000E+000  
  282.50  0.0000E+000  
  283.00  0.0000E+000  
  283.50  0.0000E+000  
  284.00  0.0000E+000  
  284.50  0.0000E+000  
  285.00  0.0000E+000  
  285.50  0.0000E+000  
  286.00  0.0000E+000  
  286.50  0.0000E+000  
  287.00  0.0000E+000  
  287.50  0.0000E+000  
  288.00  0.0000E+000  
  288.50  0.0000E+000  
  289.00  0.0000E+000  
  289.50  0.0000E+000  
  290.00  0.0000E+000  
  290.50  0.0000E+000  
  291.00  0.0000E+000  
  291.50  0.0000E+000  
  292.00  0.0000E+000  
  292.50  0.0000E+000  
  293.00  0.0000E+000  
  293.50  0.0000E+000  
  294.00  0.0000E+000  
  294.50  0.0000E+000  
  295.00  0.0000E+000  
  295.50  0.0000E+000  
  296.00  0.0000E+000  
  296.50  0.0000E+000  
  297.00  0.0000E+000  
  297.50  0.0000E+000  
  298.00  0.0000E+000  
  298.50  0.0000E+000  
  299.00  0.0000E+000  
  299.50  0.0000E+000  
  300.00  2.9158E-005  
  300.50  4.1237E-005  
  301.00  8.5165E-006  
  301.50  2.2145E-004  
  302.00  5.6260E-004  
  302.50  8.7350E-004  
  303.00  7.4373E-004  
  303.50  7.4312E-004  
  304.00  8.9289E-004  
  304.50  1.0497E-003  
  305.00  1.2775E-003  
  305.50  1.1130E-003  
  306.00  4.5570E-004  
  306.50  2.0286E-004  
  307.00  3.1504E-004  
  307.50  8.2782E-004  
  308.00  1.2052E-003  
  308.50  1.2921E-003  
  309.00  1.3171E-003  
  309.50  1.2026E-003  
  310.00  1.1557E-003  
  310.50  1.3275E-003  
  311.00  1.1769E-003  
  311.50  1.1971E-003  
  312.00  1.5236E-003  
  312.50  1.6447E-003  
  313.00  2.0612E-003  
  313.50  2.0380E-003  
  314.00  1.7775E-003  
  314.50  1.4356E-003  
  315.00  1.1023E-003  
  315.50  8.1290E-004  
  316.00  5.4535E-004  
  316.50  6.2033E-004  
  317.00  9.2005E-004  
  317.50  1.3713E-003  
  318.00  1.7513E-003  
  318.50  1.7348E-003  
  319.00  1.4521E-003  
  319.50  1.3857E-003  
  320.00  1.2913E-003  
  320.50  1.7124E-003  
  321.00  2.0900E-003  
  321.50  2.3261E-003  
  322.00  2.5168E-003  
  322.50  2.2535E-003  
  323.00  2.2749E-003  
  323.50  2.3318E-003  
  324.00  2.4223E-003  
  324.50  2.4471E-003  
  325.00  2.2013E-003  
  325.50  2.1348E-003  
  326.00  2.1346E-003  
  326.50  2.2396E-003  
  327.00  2.3356E-003  
  327.50  2.0846E-003  
  328.00  1.8397E-003  
  328.50  1.6065E-003  
  329.00  1.6107E-003  
  329.50  2.1329E-003  
  330.00  2.7138E-003  
  330.50  3.0063E-003  
  331.00  3.0442E-003  
  331.50  2.8583E-003  
  332.00  2.6822E-003  
  332.50  2.7228E-003  
  333.00  2.7067E-003  
  333.50  2.6384E-003  
  334.00  2.6714E-003  
  334.50  2.5697E-003  
  335.00  2.2612E-003  
  335.50  2.1393E-003  
  336.00  2.0378E-003  
  336.50  2.1109E-003  
  337.00  2.4552E-003  
  337.50  2.5559E-003  
  338.00  2.6972E-003  
  338.50  2.6486E-003  
  339.00  2.4188E-003  
  339.50  1.8559E-003  
  340.00  1.4807E-003  
  340.50  1.4906E-003  
  341.00  1.8393E-003  
  341.50  2.5289E-003  
  342.00  2.7897E-003  
  342.50  2.5567E-003  
  343.00  2.2927E-003  
  343.50  2.1371E-003  
  344.00  2.1686E-003  
  344.50  2.4582E-003  
  345.00  2.9508E-003  
  345.50  3.3367E-003  
  346.00  3.6346E-003  
  346.50  3.7680E-003  
  347.00  3.2998E-003  
  347.50  2.9534E-003  
  348.00  2.8807E-003  
  348.50  2.8474E-003  
  349.00  3.1155E-003  
  349.50  3.3289E-003  
  350.00  3.4105E-003  
  350.50  3.6458E-003  
  351.00  3.7862E-003  
  351.50  3.9747E-003  
  352.00  4.1010E-003  
  352.50  4.0345E-003  
  353.00  3.7846E-003  
  353.50  3.4428E-003  
  354.00  3.2193E-003  
  354.50  3.3513E-003  
  355.00  3.4877E-003  
  355.50  3.5737E-003  
  356.00  3.7967E-003  
  356.50  4.0651E-003  
  357.00  4.4304E-003  
  357.50  4.7074E-003  
  358.00  4.6238E-003  
  358.50  4.4735E-003  
  359.00  4.4878E-003  
  359.50  4.3897E-003  
  360.00  4.4652E-003  
  360.50  4.4426E-003  
  361.00  4.5813E-003  
  361.50  4.5344E-003  
  362.00  4.8051E-003  
  362.50  5.0380E-003  
  363.00  5.3065E-003  
  363.50  5.5296E-003  
  364.00  5.3437E-003  
  364.50  5.3243E-003  
  365.00  5.4203E-003  
  365.50  5.4887E-003  
  366.00  5.7430E-003  
  366.50  5.6666E-003  
  367.00  5.6619E-003  
  367.50  5.5298E-003  
  368.00  5.2170E-003  
  368.50  5.0175E-003  
  369.00  5.1705E-003  
  369.50  5.5536E-003  
  370.00  5.8628E-003  
  370.50  5.9478E-003  
  371.00  6.0115E-003  
  371.50  6.0756E-003  
  372.00  6.3347E-003  
  372.50  6.5549E-003  
  373.00  6.4888E-003  
  373.50  6.4221E-003  
  374.00  6.3899E-003  
  374.50  6.1723E-003  
  375.00  6.0833E-003  
  375.50  6.3240E-003  
  376.00  6.7668E-003  
  376.50  7.2697E-003  
  377.00  7.6019E-003  
  377.50  7.8450E-003  
  378.00  7.8300E-003  
  378.50  7.6861E-003  
  379.00  7.3428E-003  
  379.50  7.0359E-003  
  380.00  7.1016E-003  
  380.50  7.1028E-003  
  381.00  7.4744E-003  
  381.50  7.7490E-003  
  382.00  8.0821E-003  
  382.50  8.3294E-003  
  383.00  8.3476E-003  
  383.50  8.3357E-003  
  384.00  8.2931E-003  
  384.50  8.5110E-003  
  385.00  8.7451E-003  
  385.50  9.0250E-003  
  386.00  9.3438E-003  
  386.50  9.3490E-003  
  387.00  9.2646E-003  
  387.50  9.1939E-003  
  388.00  9.0894E-003  
  388.50  8.9448E-003  
  389.00  8.9340E-003  
  389.50  9.1019E-003  
  390.00  9.4335E-003  
  390.50  9.9159E-003  
  391.00  1.0313E-002  
  391.50  1.0405E-002  
  392.00  1.0505E-002  
  392.50  1.0767E-002  
  393.00  1.0963E-002  
  393.50  1.1306E-002  
  394.00  1.1438E-002  
  394.50  1.1569E-002  
  395.00  1.1471E-002  
  395.50  1.1380E-002  
  396.00  1.1162E-002  
  396.50  1.0801E-002  
  397.00  1.0908E-002  
  397.50  1.0994E-002  
  398.00  1.1325E-002  
  398.50  1.1680E-002  
  399.00  1.1908E-002  
  399.50  1.2249E-002  
  400.00  1.2216E-002  
  400.50  1.2205E-002  
  401.00  1.2104E-002  
  401.50  1.2262E-002  
  402.00  1.2658E-002  
  402.50  1.3027E-002  
  403.00  1.3508E-002  
  403.50  1.3877E-002  
  404.00  1.3897E-002  
  404.50  1.3875E-002  
  405.00  1.3840E-002  
  405.50  1.3880E-002  
  406.00  1.4086E-002  
  406.50  1.4083E-002  
  407.00  1.3882E-002  
  407.50  1.3997E-002  
  408.00  1.4443E-002  
  408.50  1.4993E-002  
  409.00  1.5460E-002  
  409.50  1.5724E-002  
  410.00  1.5790E-002  
  410.50  1.5940E-002  
  411.00  1.6118E-002  
  411.50  1.6368E-002  
  412.00  1.6456E-002  
  412.50  1.6405E-002  
  413.00  1.6347E-002  
  413.50  1.6475E-002  
  414.00  1.6820E-002  
  414.50  1.7258E-002  
  415.00  1.7402E-002  
  415.50  1.7434E-002  
  416.00  1.7349E-002  
  416.50  1.7295E-002  
  417.00  1.7598E-002  
  417.50  1.7849E-002  
  418.00  1.7859E-002  
  418.50  1.8011E-002  
  419.00  1.8027E-002  
  419.50  1.8355E-002  
  420.00  1.8688E-002  
  420.50  1.9017E-002  
  421.00  1.9246E-002  
  421.50  1.9209E-002  
  422.00  1.9346E-002  
  422.50  1.9418E-002  
  423.00  1.9612E-002  
  423.50  2.0131E-002  
  424.00  2.0525E-002  
  424.50  2.0978E-002  
  425.00  2.1144E-002  
  425.50  2.1300E-002  
  426.00  2.1376E-002  
  426.50  2.1454E-002  
  427.00  2.1451E-002  
  427.50  2.1231E-002  
  428.00  2.1097E-002  
  428.50  2.1612E-002  
  429.00  2.2354E-002  
  429.50  2.3016E-002  
  430.00  2.3327E-002  
  430.50  2.3155E-002  
  431.00  2.2968E-002  
  431.50  2.2963E-002  
  432.00  2.3190E-002  
  432.50  2.3779E-002  
  433.00  2.4069E-002  
  433.50  2.4593E-002  
  434.00  2.4910E-002  
  434.50  2.5039E-002  
  435.00  2.5221E-002  
  435.50  2.5478E-002  
  436.00  2.5974E-002  
  436.50  2.6391E-002  
  437.00  2.6358E-002  
  437.50  2.6108E-002  
  438.00  2.5721E-002  
  438.50  2.5760E-002  
  439.00  2.5845E-002  
  439.50  2.6286E-002  
  440.00  2.6813E-002  
  440.50  2.7257E-002  
  441.00  2.7310E-002  
  441.50  2.7494E-002  
  442.00  2.7942E-002  
  442.50  2.8441E-002  
  443.00  2.8803E-002  
  443.50  2.8822E-002  
  444.00  2.8610E-002  
  444.50  2.8576E-002  
  445.00  2.8743E-002  
  445.50  2.9069E-002  
  446.00  2.9356E-002  
  446.50  2.9563E-002  
  447.00  3.0078E-002  
  447.50  3.0621E-002  
  448.00  3.1272E-002  
  448.50  3.1540E-002  
  449.00  3.1321E-002  
  449.50  3.1393E-002  
  450.00  3.1194E-002  
  450.50  3.1227E-002  
  451.00  3.1267E-002  
  451.50  3.1489E-002  
  452.00  3.2103E-002  
  452.50  3.2735E-002  
  453.00  3.3429E-002  
  453.50  3.3758E-002  
  454.00  3.3654E-002  
  454.50  3.3557E-002  
  455.00  3.3769E-002  
  455.50  3.4206E-002  
  456.00  3.4668E-002  
  456.50  3.5176E-002  
  457.00  3.5592E-002  
  457.50  3.5983E-002  
  458.00  3.6086E-002  
  458.50  3.6162E-002  
  459.00  3.6376E-002  
  459.50  3.6756E-002  
  460.00  3.7385E-002  
  460.50  3.7587E-002  
  461.00  3.8128E-002  
  461.50  3.8300E-002  
  462.00  3.8554E-002  
  462.50  3.8827E-002  
  463.00  3.9314E-002  
  463.50  3.9857E-002  
  464.00  4.0241E-002  
  464.50  4.0694E-002  
  465.00  4.1018E-002  
  465.50  4.1182E-002  
  466.00  4.1217E-002  
  466.50  4.1458E-002  
  467.00  4.2180E-002  
  467.50  4.2999E-002  
  468.00  4.3571E-002  
  468.50  4.3999E-002  
  469.00  4.4104E-002  
  469.50  4.4529E-002  
  470.00  4.4910E-002  
  470.50  4.5255E-002  
  471.00  4.5542E-002  
  471.50  4.5518E-002  
  472.00  4.5732E-002  
  472.50  4.5819E-002  
  473.00  4.6043E-002  
  473.50  4.6402E-002  
  474.00  4.6708E-002  
  474.50  4.7457E-002  
  475.00  4.7878E-002  
  475.50  4.8114E-002  
  476.00  4.8079E-002  
  476.50  4.8270E-002  
  477.00  4.8721E-002  
  477.50  4.9222E-002  
  478.00  4.9400E-002  
  478.50  4.9205E-002  
  479.00  4.9429E-002  
  479.50  4.9590E-002  
  480.00  5.0184E-002  
  480.50  5.0496E-002  
  481.00  5.0400E-002  
  481.50  5.0565E-002  
  482.00  5.0827E-002  
  482.50  5.1454E-002  
  483.00  5.2075E-002  
  483.50  5.2318E-002  
  484.00  5.2393E-002  
  484.50  5.2490E-002  
  485.00  5.2744E-002  
  485.50  5.2847E-002  
  486.00  5.2937E-002  
  486.50  5.2981E-002  
  487.00  5.3227E-002  
  487.50  5.3452E-002  
  488.00  5.3724E-002  
  488.50  5.3947E-002  
  489.00  5.4107E-002  
  489.50  5.4228E-002  
  490.00  5.4302E-002  
  490.50  5.4510E-002  
  491.00  5.4967E-002  
  491.50  5.5304E-002  
  492.00  5.5572E-002  
  492.50  5.5645E-002  
  493.00  5.5578E-002  
  493.50  5.5375E-002  
  494.00  5.5249E-002  
  494.50  5.5393E-002  
  495.00  5.5963E-002  
  495.50  5.6604E-002  
  496.00  5.7033E-002  
  496.50  5.7072E-002  
  497.00  5.7191E-002  
  497.50  5.7482E-002  
  498.00  5.7746E-002  
  498.50  5.8068E-002  
  499.00  5.8320E-002  
  499.50  5.8661E-002  
  500.00  5.8912E-002  
  500.50  5.9015E-002  
  501.00  5.9299E-002  
  501.50  5.9781E-002  
  502.00  6.0272E-002  
  502.50  6.0792E-002  
  503.00  6.1240E-002  
  503.50  6.1580E-002  
  504.00  6.1803E-002  
  504.50  6.1828E-002  
  505.00  6.2104E-002  
  505.50  6.2409E-002  
  506.00  6.2795E-002  
  506.50  6.3175E-002  
  507.00  6.3539E-002  
  507.50  6.3986E-002  
  508.00  6.4336E-002  
  508.50  6.4728E-002  
  509.00  6.5155E-002  
  509.50  6.5489E-002  
  510.00  6.6090E-002  
  510.50  6.6568E-002  
  511.00  6.6916E-002  
  511.50  6.7098E-002  
  512.00  6.7225E-002  
  512.50  6.7527E-002  
  513.00  6.8068E-002  
  513.50  6.8300E-002  
  514.00  6.8610E-002  
  514.50  6.8997E-002  
  515.00  6.9519E-002  
  515.50  7.0144E-002  
  516.00  7.0595E-002  
  516.50  7.0834E-002  
  517.00  7.1155E-002  
  517.50  7.1291E-002  
  518.00  7.1794E-002  
  518.50  7.2224E-002  
  519.00  7.2692E-002  
  519.50  7.3108E-002  
  520.00  7.3651E-002  
  520.50  7.4369E-002  
  521.00  7.4993E-002  
  521.50  7.5360E-002  
  522.00  7.5467E-002  
  522.50  7.5596E-002  
  523.00  7.5979E-002  
  523.50  7.6470E-002  
  524.00  7.7010E-002  
  524.50  7.7374E-002  
  525.00  7.7769E-002  
  525.50  7.8194E-002  
  526.00  7.8910E-002  
  526.50  7.9772E-002  
  527.00  8.0576E-002  
  527.50  8.1003E-002  
  528.00  8.1292E-002  
  528.50  8.1680E-002  
  529.00  8.2005E-002  
  529.50  8.2441E-002  
  530.00  8.2886E-002  
  530.50  8.3601E-002  
  531.00  8.4589E-002  
  531.50  8.5455E-002  
  532.00  8.6044E-002  
  532.50  8.6360E-002  
  533.00  8.6388E-002  
  533.50  8.6785E-002  
  534.00  8.7307E-002  
  534.50  8.8103E-002  
  535.00  8.8772E-002  
  535.50  8.9174E-002  
  536.00  8.9554E-002  
  536.50  9.0212E-002  
  537.00  9.1164E-002  
  537.50  9.2031E-002  
  538.00  9.2694E-002  
  538.50  9.3072E-002  
  539.00  9.3555E-002  
  539.50  9.4002E-002  
  540.00  9.4520E-002  
  540.50  9.4859E-002  
  541.00  9.5584E-002  
  541.50  9.6467E-002  
  542.00  9.7323E-002  
  542.50  9.7877E-002  
  543.00  9.8401E-002  
  543.50  9.8993E-002  
  544.00  9.9672E-002  
  544.50  1.0013E-001  
  545.00  1.0055E-001  
  545.50  1.0105E-001  
  546.00  1.0177E-001  
  546.50  1.0221E-001  
  547.00  1.0258E-001  
  547.50  1.0280E-001  
  548.00  1.0302E-001  
  548.50  1.0369E-001  
  549.00  1.0458E-001  
  549.50  1.0554E-001  
  550.00  1.0621E-001  
  550.50  1.0692E-001  
  551.00  1.0781E-001  
  551.50  1.0856E-001  
  552.00  1.0913E-001  
  552.50  1.0953E-001  
  553.00  1.0996E-001  
  553.50  1.1032E-001  
  554.00  1.1093E-001  
  554.50  1.1163E-001  
  555.00  1.1260E-001  
  555.50  1.1305E-001  
  556.00  1.1366E-001  
  556.50  1.1427E-001  
  557.00  1.1501E-001  
  557.50  1.1575E-001  
  558.00  1.1649E-001  
  558.50  1.1726E-001  
  559.00  1.1788E-001  
  559.50  1.1830E-001  
  560.00  1.1898E-001  
  560.50  1.1960E-001  
  561.00  1.2047E-001  
  561.50  1.2133E-001  
  562.00  1.2210E-001  
  562.50  1.2294E-001  
  563.00  1.2335E-001  
  563.50  1.2388E-001  
  564.00  1.2433E-001  
  564.50  1.2475E-001  
  565.00  1.2515E-001  
  565.50  1.2546E-001  
  566.00  1.2595E-001  
  566.50  1.2669E-001  
  567.00  1.2741E-001  
  567.50  1.2820E-001  
  568.00  1.2862E-001  
  568.50  1.2945E-001  
  569.00  1.3002E-001  
  569.50  1.3055E-001  
  570.00  1.3092E-001  
  570.50  1.3112E-001  
  571.00  1.3141E-001  
  571.50  1.3155E-001  
  572.00  1.3204E-001  
  572.50  1.3292E-001  
  573.00  1.3396E-001  
  573.50  1.3482E-001  
  574.00  1.3557E-001  
  574.50  1.3645E-001  
  575.00  1.3714E-001  
  575.50  1.3782E-001  
  576.00  1.3843E-001  
  576.50  1.3912E-001  
  577.00  1.4012E-001  
  577.50  1.4076E-001  
  578.00  1.4124E-001  
  578.50  1.4138E-001  
  579.00  1.4130E-001  
  579.50  1.4183E-001  
  580.00  1.4245E-001  
  580.50  1.4306E-001  
  581.00  1.4365E-001  
  581.50  1.4410E-001  
  582.00  1.4473E-001  
  582.50  1.4493E-001  
  583.00  1.4511E-001  
  583.50  1.4537E-001  
  584.00  1.4604E-001  
  584.50  1.4669E-001  
  585.00  1.4743E-001  
  585.50  1.4786E-001  
  586.00  1.4869E-001  
  586.50  1.4898E-001  
  587.00  1.4985E-001  
  587.50  1.5072E-001  
  588.00  1.5164E-001  
  588.50  1.5241E-001  
  589.00  1.5258E-001  
  589.50  1.5299E-001  
  590.00  1.5351E-001  
  590.50  1.5409E-001  
  591.00  1.5472E-001  
  591.50  1.5516E-001  
  592.00  1.5587E-001  
  592.50  1.5637E-001  
  593.00  1.5710E-001  
  593.50  1.5755E-001  
  594.00  1.5826E-001  
  594.50  1.5885E-001  
  595.00  1.5943E-001  
  595.50  1.6010E-001  
  596.00  1.6045E-001  
  596.50  1.6046E-001  
  597.00  1.6051E-001  
  597.50  1.6079E-001  
  598.00  1.6144E-001  
  598.50  1.6187E-001  
  599.00  1.6238E-001  
  599.50  1.6316E-001  
  600.00  1.6376E-001  
  600.50  1.6456E-001  
  601.00  1.6491E-001  
  601.50  1.6519E-001  
  602.00  1.6556E-001  
  602.50  1.6612E-001  
  603.00  1.6691E-001  
  603.50  1.6728E-001  
  604.00  1.6755E-001  
  604.50  1.6834E-001  
  605.00  1.6924E-001  
  605.50  1.7004E-001  
  606.00  1.7043E-001  
  606.50  1.7082E-001  
  607.00  1.7083E-001  
  607.50  1.7106E-001  
  608.00  1.7164E-001  
  608.50  1.7242E-001  
  609.00  1.7298E-001  
  609.50  1.7284E-001  
  610.00  1.7323E-001  
  610.50  1.7376E-001  
  611.00  1.7482E-001  
  611.50  1.7577E-001  
  612.00  1.7648E-001  
  612.50  1.7663E-001  
  613.00  1.7634E-001  
  613.50  1.7634E-001  
  614.00  1.7702E-001  
  614.50  1.7773E-001  
  615.00  1.7804E-001  
  615.50  1.7794E-001  
  616.00  1.7796E-001  
  616.50  1.7842E-001  
  617.00  1.7881E-001  
  617.50  1.7961E-001  
  618.00  1.8035E-001  
  618.50  1.8099E-001  
  619.00  1.8145E-001  
  619.50  1.8202E-001  
  620.00  1.8264E-001  
  620.50  1.8302E-001  
  621.00  1.8321E-001  
  621.50  1.8329E-001  
  622.00  1.8361E-001  
  622.50  1.8394E-001  
  623.00  1.8443E-001  
  623.50  1.8489E-001  
  624.00  1.8497E-001  
  624.50  1.8523E-001  
  625.00  1.8545E-001  
  625.50  1.8563E-001  
  626.00  1.8578E-001  
  626.50  1.8615E-001  
  627.00  1.8657E-001  
  627.50  1.8685E-001  
  628.00  1.8677E-001  
  628.50  1.8724E-001  
  629.00  1.8786E-001  
  629.50  1.8866E-001  
  630.00  1.8949E-001  
  630.50  1.8985E-001  
  631.00  1.9012E-001  
  631.50  1.9067E-001  
  632.00  1.9149E-001  
  632.50  1.9226E-001  
  633.00  1.9264E-001  
  633.50  1.9274E-001  
  634.00  1.9326E-001  
  634.50  1.9390E-001  
  635.00  1.9424E-001  
  635.50  1.9419E-001  
  636.00  1.9389E-001  
  636.50  1.9419E-001  
  637.00  1.9463E-001  
  637.50  1.9509E-001  
  638.00  1.9572E-001  
  638.50  1.9675E-001  
  639.00  1.9730E-001  
  639.50  1.9736E-001  
  640.00  1.9697E-001  
  640.50  1.9739E-001  
  641.00  1.9765E-001  
  641.50  1.9803E-001  
  642.00  1.9858E-001  
  642.50  1.9977E-001  
  643.00  2.0077E-001  
  643.50  2.0110E-001  
  644.00  2.0058E-001  
  644.50  1.9998E-001  
  645.00  1.9995E-001  
  645.50  2.0026E-001  
  646.00  2.0118E-001  
  646.50  2.0184E-001  
  647.00  2.0289E-001  
  647.50  2.0343E-001  
  648.00  2.0369E-001  
  648.50  2.0373E-001  
  649.00  2.0388E-001  
  649.50  2.0420E-001  
  650.00  2.0463E-001  
  650.50  2.0551E-001  
  651.00  2.0613E-001  
  651.50  2.0603E-001  
  652.00  2.0627E-001  
  652.50  2.0626E-001  
  653.00  2.0653E-001  
  653.50  2.0607E-001  
  654.00  2.0668E-001  
  654.50  2.0793E-001  
  655.00  2.0880E-001  
  655.50  2.0838E-001  
  656.00  2.0787E-001  
  656.50  2.0792E-001  
  657.00  2.0837E-001  
  657.50  2.0872E-001  
  658.00  2.0909E-001  
  658.50  2.0977E-001  
  659.00  2.1003E-001  
  659.50  2.0974E-001  
  660.00  2.0989E-001  
  660.50  2.1048E-001  
  661.00  2.1149E-001  
  661.50  2.1209E-001  
  662.00  2.1222E-001  
  662.50  2.1232E-001  
  663.00  2.1174E-001  
  663.50  2.1188E-001  
  664.00  2.1256E-001  
  664.50  2.1341E-001  
  665.00  2.1323E-001  
  665.50  2.1272E-001  
  666.00  2.1236E-001  
  666.50  2.1295E-001  
  667.00  2.1324E-001  
  667.50  2.1355E-001  
  668.00  2.1365E-001  
  668.50  2.1407E-001  
  669.00  2.1456E-001  
  669.50  2.1492E-001  
  670.00  2.1463E-001  
  670.50  2.1450E-001  
  671.00  2.1454E-001  
  671.50  2.1503E-001  
  672.00  2.1578E-001  
  672.50  2.1670E-001  
  673.00  2.1771E-001  
  673.50  2.1802E-001  
  674.00  2.1755E-001  
  674.50  2.1687E-001  
  675.00  2.1645E-001  
  675.50  2.1661E-001  
  676.00  2.1727E-001  
  676.50  2.1737E-001  
  677.00  2.1748E-001  
  677.50  2.1704E-001  
  678.00  2.1687E-001  
  678.50  2.1641E-001  
  679.00  2.1638E-001  
  679.50  2.1653E-001  
  680.00  2.1751E-001  
  680.50  2.1800E-001  
  681.00  2.1830E-001  
  681.50  2.1777E-001  
  682.00  2.1771E-001  
  682.50  2.1816E-001  
  683.00  2.1835E-001  
  683.50  2.1801E-001  
  684.00  2.1768E-001  
  684.50  2.1807E-001  
  685.00  2.1838E-001  
  685.50  2.1934E-001  
  686.00  2.1934E-001  
  686.50  2.1995E-001  
  687.00  2.1980E-001  
  687.50  2.2060E-001  
  688.00  2.2057E-001  
  688.50  2.2055E-001  
  689.00  2.1999E-001  
  689.50  2.2009E-001  
  690.00  2.1958E-001  
  690.50  2.1959E-001  
  691.00  2.1949E-001  
  691.50  2.2001E-001  
  692.00  2.2080E-001  
  692.50  2.2183E-001  
  693.00  2.2247E-001  
  693.50  2.2274E-001  
  694.00  2.2215E-001  
  694.50  2.2179E-001  
  695.00  2.2107E-001  
  695.50  2.2139E-001  
  696.00  2.2183E-001  
  696.50  2.2247E-001  
  697.00  2.2201E-001  
  697.50  2.2183E-001  
  698.00  2.2181E-001  
  698.50  2.2190E-001  
  699.00  2.2180E-001  
  699.50  2.2158E-001  
  700.00  2.2142E-001  
  700.50  2.2127E-001  
  701.00  2.2160E-001  
  701.50  2.2227E-001  
  702.00  2.2251E-001  
  702.50  2.2328E-001  
  703.00  2.2392E-001  
  703.50  2.2456E-001  
  704.00  2.2470E-001  
  704.50  2.2512E-001  
  705.00  2.2538E-001  
  705.50  2.2536E-001  
  706.00  2.2496E-001  
  706.50  2.2481E-001  
  707.00  2.2473E-001  
  707.50  2.2543E-001  
  708.00  2.2642E-001  
  708.50  2.2674E-001  
  709.00  2.2628E-001  
  709.50  2.2566E-001  
  710.00  2.2572E-001  
  710.50  2.2595E-001  
  711.00  2.2658E-001  
  711.50  2.2683E-001  
  712.00  2.2698E-001  
  712.50  2.2686E-001  
  713.00  2.2683E-001  
  713.50  2.2684E-001  
  714.00  2.2725E-001  
  714.50  2.2764E-001  
  715.00  2.2753E-001  
  715.50  2.2701E-001  
  716.00  2.2695E-001  
  716.50  2.2739E-001  
  717.00  2.2805E-001  
  717.50  2.2796E-001  
  718.00  2.2775E-001  
  718.50  2.2719E-001  
  719.00  2.2708E-001  
  719.50  2.2704E-001  
  720.00  2.2764E-001  
  720.50  2.2823E-001  
  721.00  2.2848E-001  
  721.50  2.2869E-001  
  722.00  2.2856E-001  
  722.50  2.2825E-001  
  723.00  2.2762E-001  
  723.50  2.2745E-001  
  724.00  2.2786E-001  
  724.50  2.2850E-001  
  725.00  2.2921E-001  
  725.50  2.2924E-001  
  726.00  2.2879E-001  
  726.50  2.2884E-001  
  727.00  2.2928E-001  
  727.50  2.3041E-001  
  728.00  2.3011E-001  
  728.50  2.3061E-001  
  729.00  2.3016E-001  
  729.50  2.3010E-001  
  730.00  2.2936E-001  
  730.50  2.2900E-001  
  731.00  2.2879E-001  
  731.50  2.2964E-001  
  732.00  2.3108E-001  
  732.50  2.3211E-001  
  733.00  2.3133E-001  
  733.50  2.3115E-001  
  734.00  2.3122E-001  
  734.50  2.3190E-001  
  735.00  2.3190E-001  
  735.50  2.3202E-001  
  736.00  2.3219E-001  
  736.50  2.3266E-001  
  737.00  2.3267E-001  
  737.50  2.3238E-001  
  738.00  2.3217E-001  
  738.50  2.3247E-001  
  739.00  2.3202E-001  
  739.50  2.3182E-001  
  740.00  2.3204E-001  
  740.50  2.3233E-001  
  741.00  2.3209E-001  
  741.50  2.3208E-001  
  742.00  2.3209E-001  
  742.50  2.3203E-001  
  743.00  2.3192E-001  
  743.50  2.3207E-001  
  744.00  2.3326E-001  
  744.50  2.3422E-001  
  745.00  2.3468E-001  
  745.50  2.3326E-001  
  746.00  2.3377E-001  
  746.50  2.3526E-001  
  747.00  2.3596E-001  
  747.50  2.3472E-001  
  748.00  2.3259E-001  
  748.50  2.3150E-001  
  749.00  2.3088E-001  
  749.50  2.3156E-001  
  750.00  2.3246E-001  
  750.50  2.3330E-001  
  751.00  2.3465E-001  
  751.50  2.3477E-001  
  752.00  2.3542E-001  
  752.50  2.3595E-001  
  753.00  2.3745E-001  
  753.50  2.3729E-001  
  754.00  2.3685E-001  
  754.50  2.3664E-001  
  755.00  2.3659E-001  
  755.50  2.3504E-001  
  756.00  2.3369E-001  
  756.50  2.3366E-001  
  757.00  2.3512E-001  
  757.50  2.3641E-001  
  758.00  2.3769E-001  
  758.50  2.3737E-001  
  759.00  2.3675E-001  
  759.50  2.3651E-001  
  760.00  2.3592E-001  
  760.50  2.3580E-001  
  761.00  2.3604E-001  
  761.50  2.3715E-001  
  762.00  2.3700E-001  
  762.50  2.3668E-001  
  763.00  2.3639E-001  
  763.50  2.3648E-001  
  764.00  2.3639E-001  
  764.50  2.3648E-001  
  765.00  2.3702E-001  
  765.50  2.3788E-001  
  766.00  2.3833E-001  
  766.50  2.3817E-001  
  767.00  2.3847E-001  
  767.50  2.3815E-001  
  768.00  2.3850E-001  
  768.50  2.3897E-001  
  769.00  2.3994E-001  
  769.50  2.4028E-001  
  770.00  2.3955E-001  
  770.50  2.3884E-001  
  771.00  2.3911E-001  
  771.50  2.3915E-001  
  772.00  2.3897E-001  
  772.50  2.3860E-001  
  773.00  2.3872E-001  
  773.50  2.3894E-001  
  774.00  2.3898E-001  
  774.50  2.3962E-001  
  775.00  2.3929E-001  
  775.50  2.3868E-001  
  776.00  2.3760E-001  
  776.50  2.3726E-001  
  777.00  2.3757E-001  
  777.50  2.3744E-001  
  778.00  2.3689E-001  
  778.50  2.3663E-001  
  779.00  2.3700E-001  
  779.50  2.3732E-001  
  780.00  2.3940E-001  
  780.50  2.4167E-001  
  781.00  2.4173E-001  
  781.50  2.4047E-001  
  782.00  2.4076E-001  
  782.50  2.4131E-001  
  783.00  2.4090E-001  
  783.50  2.3890E-001  
  784.00  2.3887E-001  
  784.50  2.3901E-001  
  785.00  2.3927E-001  
  785.50  2.3918E-001  
  786.00  2.3952E-001  
  786.50  2.3947E-001  
  787.00  2.3987E-001  
  787.50  2.4068E-001  
  788.00  2.4024E-001  
  788.50  2.3991E-001  
  789.00  2.4073E-001  
  789.50  2.4237E-001  
  790.00  2.4338E-001  
  790.50  2.4335E-001  
  791.00  2.4211E-001  
  791.50  2.4175E-001  
  792.00  2.4287E-001  
  792.50  2.4473E-001  
  793.00  2.4491E-001  
  793.50  2.4355E-001  
  794.00  2.4238E-001  
  794.50  2.4125E-001  
  795.00  2.4139E-001  
  795.50  2.4147E-001  
  796.00  2.4350E-001  
  796.50  2.4453E-001  
  797.00  2.4483E-001  
  797.50  2.4443E-001  
  798.00  2.4396E-001  
  798.50  2.4455E-001  
  799.00  2.4443E-001  
  799.50  2.4426E-001  
  800.00  2.4362E-001  
  800.50  2.4463E-001  
  801.00  2.4512E-001  
  801.50  2.4415E-001  
  802.00  2.4299E-001  
  802.50  2.4283E-001  
  803.00  2.4320E-001  
  803.50  2.4400E-001  
  804.00  2.4357E-001  
  804.50  2.4294E-001  
  805.00  2.4266E-001  
  805.50  2.4354E-001  
  806.00  2.4539E-001  
  806.50  2.4589E-001  
  807.00  2.4466E-001  
  807.50  2.4261E-001  
  808.00  2.4195E-001  
  808.50  2.4265E-001  
  809.00  2.4422E-001  
  809.50  2.4617E-001  
  810.00  2.4536E-001  
  810.50  2.4407E-001  
  811.00  2.4370E-001  
  811.50  2.4449E-001  
  812.00  2.4442E-001  
  812.50  2.4450E-001  
  813.00  2.4567E-001  
  813.50  2.4718E-001  
  814.00  2.4759E-001  
  814.50  2.4700E-001  
  815.00  2.4811E-001  
  815.50  2.4888E-001  
  816.00  2.4917E-001  
  816.50  2.4770E-001  
  817.00  2.4698E-001  
  817.50  2.4471E-001  
  818.00  2.4567E-001  
  818.50  2.4749E-001  
  819.00  2.4938E-001  
  819.50  2.4702E-001  
  820.00  2.4642E-001  
  820.50  2.4740E-001  
  821.00  2.4846E-001  
  821.50  2.4923E-001  
  822.00  2.5098E-001  
  822.50  2.4988E-001  
  823.00  2.4761E-001  
  823.50  2.4675E-001  
  824.00  2.4789E-001  
  824.50  2.4835E-001  
  825.00  2.4844E-001  
  825.50  2.5041E-001  
  826.00  2.5189E-001  
  826.50  2.5127E-001  
  827.00  2.4907E-001  
  827.50  2.4800E-001  
  828.00  2.5041E-001  
  828.50  2.5083E-001  
  829.00  2.5063E-001  
  829.50  2.5013E-001  
  830.00  2.5048E-001  
  830.50  2.5127E-001  
  831.00  2.5312E-001  
  831.50  2.5386E-001  
  832.00  2.5390E-001  
  832.50  2.5408E-001  
  833.00  2.5260E-001  
  833.50  2.5194E-001  
  834.00  2.5275E-001  
  834.50  2.5262E-001  
  835.00  2.5154E-001  
  835.50  2.5324E-001  
  836.00  2.5364E-001  
  836.50  2.5092E-001  
  837.00  2.5103E-001  
  837.50  2.5520E-001  
  838.00  2.5704E-001  
  838.50  2.5354E-001  
  839.00  2.5214E-001  
  839.50  2.5348E-001  
  840.00  2.5538E-001  
  840.50  2.5520E-001  
  841.00  2.5474E-001  
  841.50  2.5572E-001  
  842.00  2.5496E-001  
  842.50  2.5429E-001  
  843.00  2.5517E-001  
  843.50  2.5859E-001  
  844.00  2.5910E-001  
  844.50  2.5816E-001  
  845.00  2.5731E-001  
  845.50  2.5546E-001  
  846.00  2.5454E-001  
  846.50  2.5450E-001  
  847.00  2.5643E-001  
  847.50  2.5919E-001  
  848.00  2.6014E-001  
  848.50  2.5948E-001  
  849.00  2.5731E-001  
  849.50  2.5642E-001  
  850.00  2.5614E-001  
  850.50  2.5742E-001  
  851.00  2.6102E-001  
  851.50  2.6298E-001  
  852.00  2.6280E-001  
  852.50  2.6254E-001  
  853.00  2.6109E-001  
  853.50  2.5865E-001  
  854.00  2.5929E-001  
  854.50  2.6045E-001  
  855.00  2.6120E-001  
  855.50  2.6293E-001  
  856.00  2.6212E-001  
  856.50  2.6396E-001  
  857.00  2.6499E-001  
  857.50  2.6468E-001  
  858.00  2.6266E-001  
  858.50  2.6247E-001  
  859.00  2.6435E-001  
  859.50  2.6454E-001  
  860.00  2.6569E-001  
  860.50  2.6520E-001  
  861.00  2.6657E-001  
  861.50  2.6464E-001  
  862.00  2.6664E-001  
  862.50  2.6788E-001  
  863.00  2.6538E-001  
  863.50  2.6235E-001  
  864.00  2.6483E-001  
  864.50  2.6832E-001  
  865.00  2.6673E-001  
  865.50  2.6529E-001  
  866.00  2.6564E-001  
  866.50  2.6572E-001  
  867.00  2.6714E-001  
  867.50  2.7042E-001  
  868.00  2.7297E-001  
  868.50  2.7313E-001  
  869.00  2.6960E-001  
  869.50  2.6940E-001  
  870.00  2.7200E-001  
  870.50  2.6950E-001  
  871.00  2.6395E-001  
  871.50  2.6690E-001  
  872.00  2.7104E-001  
  872.50  2.7275E-001  
  873.00  2.7358E-001  
  873.50  2.7110E-001  
  874.00  2.7026E-001  
  874.50  2.7196E-001  
  875.00  2.7474E-001  
  875.50  2.7280E-001  
  876.00  2.7177E-001  
  876.50  2.7235E-001  
  877.00  2.7156E-001  
  877.50  2.6652E-001  
  878.00  2.6471E-001  
  878.50  2.6746E-001  
  879.00  2.7326E-001  
  879.50  2.8037E-001  
  880.00  2.8078E-001  
  880.50  2.7539E-001  
  881.00  2.7421E-001  
  881.50  2.7182E-001  
  882.00  2.6941E-001  
  882.50  2.7127E-001  
  883.00  2.7410E-001  
  883.50  2.7698E-001  
  884.00  2.7628E-001  
  884.50  2.7621E-001  
  885.00  2.7673E-001  
  885.50  2.7720E-001  
  886.00  2.7812E-001  
  886.50  2.7788E-001  
  887.00  2.7660E-001  
  887.50  2.7614E-001  
  888.00  2.7591E-001  
  888.50  2.7528E-001  
  889.00  2.7508E-001  
  889.50  2.7558E-001  
  890.00  2.7575E-001  
  890.50  2.7837E-001  
  891.00  2.8197E-001  
  891.50  2.8226E-001  
  892.00  2.8064E-001  
  892.50  2.8464E-001  
  893.00  2.8272E-001  
  893.50  2.7817E-001  
  894.00  2.7580E-001  
  894.50  2.7570E-001  
  895.00  2.8019E-001  
  895.50  2.8244E-001  
  896.00  2.8307E-001  
  896.50  2.8065E-001  
  897.00  2.7843E-001  
  897.50  2.8208E-001  
  898.00  2.8467E-001  
  898.50  2.8315E-001  
  899.00  2.8496E-001  
  899.50  5.6641E-003  
