
# From lspdd.org
# 
# Name: DEL Philips PAR30S Domestique
# Indice spectral Valeur 
# MSI 0.43 
# SLI 0.57 
# IPI 0.79 
# Pourcentage de bleu 22.4 
# Caractéristique Valeur 
# CCT calculée (K) 2963 
# CCT du fabricant (K) 3000 
# Tension (V) 130 
# Puissance (W) 12.5 
# Efficacité lumineuse (Lum/W) 62.4 
#
# Image: '/app/system/img_2s/2728/medium_image2.jpg?1612236444'
# Image: '/app/system/img_1s/2728/medium_image1.jpg?1612236441'
# 

  273.00  0.0000E+000  
  273.50  0.0000E+000  
  274.00  0.0000E+000  
  274.50  0.0000E+000  
  275.00  0.0000E+000  
  275.50  0.0000E+000  
  276.00  0.0000E+000  
  276.50  0.0000E+000  
  277.00  0.0000E+000  
  277.50  0.0000E+000  
  278.00  0.0000E+000  
  278.50  0.0000E+000  
  279.00  0.0000E+000  
  279.50  0.0000E+000  
  280.00  0.0000E+000  
  280.50  0.0000E+000  
  281.00  0.0000E+000  
  281.50  0.0000E+000  
  282.00  0.0000E+000  
  282.50  0.0000E+000  
  283.00  0.0000E+000  
  283.50  0.0000E+000  
  284.00  0.0000E+000  
  284.50  0.0000E+000  
  285.00  0.0000E+000  
  285.50  0.0000E+000  
  286.00  0.0000E+000  
  286.50  0.0000E+000  
  287.00  0.0000E+000  
  287.50  0.0000E+000  
  288.00  0.0000E+000  
  288.50  0.0000E+000  
  289.00  0.0000E+000  
  289.50  0.0000E+000  
  290.00  0.0000E+000  
  290.50  0.0000E+000  
  291.00  0.0000E+000  
  291.50  0.0000E+000  
  292.00  0.0000E+000  
  292.50  0.0000E+000  
  293.00  0.0000E+000  
  293.50  0.0000E+000  
  294.00  0.0000E+000  
  294.50  0.0000E+000  
  295.00  0.0000E+000  
  295.50  0.0000E+000  
  296.00  0.0000E+000  
  296.50  0.0000E+000  
  297.00  0.0000E+000  
  297.50  0.0000E+000  
  298.00  0.0000E+000  
  298.50  0.0000E+000  
  299.00  0.0000E+000  
  299.50  0.0000E+000  
  300.00  1.2670E-004  
  300.50  3.6234E-004  
  301.00  3.6939E-004  
  301.50  4.5219E-004  
  302.00  3.9628E-004  
  302.50  1.6363E-004  
  303.00  6.5538E-005  
  303.50  2.9534E-005  
  304.00  3.2015E-004  
  304.50  5.0019E-004  
  305.00  5.1668E-004  
  305.50  5.1981E-004  
  306.00  2.5273E-004  
  306.50  3.3438E-004  
  307.00  5.6956E-004  
  307.50  8.4238E-004  
  308.00  1.1512E-003  
  308.50  1.2850E-003  
  309.00  1.0620E-003  
  309.50  6.6794E-004  
  310.00  2.9613E-004  
  310.50  1.3064E-004  
  311.00  3.8838E-004  
  311.50  9.3893E-004  
  312.00  1.6519E-003  
  312.50  2.1370E-003  
  313.00  2.1727E-003  
  313.50  2.0363E-003  
  314.00  1.4371E-003  
  314.50  1.2753E-003  
  315.00  1.4276E-003  
  315.50  1.3824E-003  
  316.00  1.3552E-003  
  316.50  1.0242E-003  
  317.00  3.9927E-004  
  317.50  3.4724E-005  
  318.00  0.0000E+000  
  318.50  0.0000E+000  
  319.00  2.2948E-004  
  319.50  5.3131E-004  
  320.00  8.8891E-004  
  320.50  1.3417E-003  
  321.00  1.5151E-003  
  321.50  1.5022E-003  
  322.00  1.4042E-003  
  322.50  1.2151E-003  
  323.00  9.3364E-004  
  323.50  7.2521E-004  
  324.00  5.4505E-004  
  324.50  4.0523E-004  
  325.00  5.5054E-004  
  325.50  8.1808E-004  
  326.00  8.8271E-004  
  326.50  9.6503E-004  
  327.00  9.0515E-004  
  327.50  9.9358E-004  
  328.00  1.3556E-003  
  328.50  1.6142E-003  
  329.00  1.7119E-003  
  329.50  1.2409E-003  
  330.00  5.5499E-004  
  330.50  8.7313E-005  
  331.00  0.0000E+000  
  331.50  7.6686E-006  
  332.00  2.5834E-004  
  332.50  7.9717E-004  
  333.00  1.3033E-003  
  333.50  1.3745E-003  
  334.00  1.1971E-003  
  334.50  1.1049E-003  
  335.00  9.8099E-004  
  335.50  8.7966E-004  
  336.00  1.1422E-003  
  336.50  1.1492E-003  
  337.00  1.0687E-003  
  337.50  8.9245E-004  
  338.00  6.3613E-004  
  338.50  6.8535E-004  
  339.00  9.9634E-004  
  339.50  1.1435E-003  
  340.00  1.0894E-003  
  340.50  1.0774E-003  
  341.00  1.0643E-003  
  341.50  1.1722E-003  
  342.00  1.1395E-003  
  342.50  9.9553E-004  
  343.00  7.8836E-004  
  343.50  8.2326E-004  
  344.00  9.5254E-004  
  344.50  1.3361E-003  
  345.00  1.7690E-003  
  345.50  1.7661E-003  
  346.00  1.7047E-003  
  346.50  1.5793E-003  
  347.00  1.4517E-003  
  347.50  1.3185E-003  
  348.00  8.8679E-004  
  348.50  7.1630E-004  
  349.00  5.3115E-004  
  349.50  5.3615E-004  
  350.00  8.7974E-004  
  350.50  9.4373E-004  
  351.00  1.0658E-003  
  351.50  1.0876E-003  
  352.00  9.6135E-004  
  352.50  1.1286E-003  
  353.00  1.3831E-003  
  353.50  1.7092E-003  
  354.00  1.7721E-003  
  354.50  1.5894E-003  
  355.00  1.4499E-003  
  355.50  1.4743E-003  
  356.00  1.6387E-003  
  356.50  1.6594E-003  
  357.00  1.4903E-003  
  357.50  1.2053E-003  
  358.00  1.1778E-003  
  358.50  1.2217E-003  
  359.00  1.6323E-003  
  359.50  1.8156E-003  
  360.00  1.7021E-003  
  360.50  1.4462E-003  
  361.00  8.8356E-004  
  361.50  7.1706E-004  
  362.00  6.1526E-004  
  362.50  5.6081E-004  
  363.00  9.5057E-004  
  363.50  1.2810E-003  
  364.00  1.8343E-003  
  364.50  2.2008E-003  
  365.00  2.0357E-003  
  365.50  1.4880E-003  
  366.00  1.3148E-003  
  366.50  1.3781E-003  
  367.00  1.7182E-003  
  367.50  1.9714E-003  
  368.00  1.6625E-003  
  368.50  1.5223E-003  
  369.00  1.4715E-003  
  369.50  1.6425E-003  
  370.00  1.9076E-003  
  370.50  1.9137E-003  
  371.00  1.7664E-003  
  371.50  1.6100E-003  
  372.00  1.5496E-003  
  372.50  1.7498E-003  
  373.00  2.1963E-003  
  373.50  2.6747E-003  
  374.00  2.9178E-003  
  374.50  2.9595E-003  
  375.00  2.8237E-003  
  375.50  2.7409E-003  
  376.00  2.6669E-003  
  376.50  2.7889E-003  
  377.00  3.0157E-003  
  377.50  2.9424E-003  
  378.00  2.8880E-003  
  378.50  2.8421E-003  
  379.00  2.9382E-003  
  379.50  3.1733E-003  
  380.00  3.3389E-003  
  380.50  3.4622E-003  
  381.00  3.5626E-003  
  381.50  3.5754E-003  
  382.00  3.4111E-003  
  382.50  3.4518E-003  
  383.00  3.4309E-003  
  383.50  3.4731E-003  
  384.00  3.7625E-003  
  384.50  4.1816E-003  
  385.00  4.7743E-003  
  385.50  5.4678E-003  
  386.00  6.1513E-003  
  386.50  6.8500E-003  
  387.00  7.6323E-003  
  387.50  8.6703E-003  
  388.00  9.6108E-003  
  388.50  1.0934E-002  
  389.00  1.2275E-002  
  389.50  1.3639E-002  
  390.00  1.5220E-002  
  390.50  1.6628E-002  
  391.00  1.8197E-002  
  391.50  1.9907E-002  
  392.00  2.1760E-002  
  392.50  2.4426E-002  
  393.00  2.7168E-002  
  393.50  3.0069E-002  
  394.00  3.3100E-002  
  394.50  3.5838E-002  
  395.00  3.9039E-002  
  395.50  4.2661E-002  
  396.00  4.6827E-002  
  396.50  5.1187E-002  
  397.00  5.5460E-002  
  397.50  5.9917E-002  
  398.00  6.5128E-002  
  398.50  7.0395E-002  
  399.00  7.6167E-002  
  399.50  8.1334E-002  
  400.00  8.6337E-002  
  400.50  9.1638E-002  
  401.00  9.6563E-002  
  401.50  1.0204E-001  
  402.00  1.0816E-001  
  402.50  1.1437E-001  
  403.00  1.2071E-001  
  403.50  1.2671E-001  
  404.00  1.3180E-001  
  404.50  1.3749E-001  
  405.00  1.4228E-001  
  405.50  1.4621E-001  
  406.00  1.4900E-001  
  406.50  1.4995E-001  
  407.00  1.4854E-001  
  407.50  1.4713E-001  
  408.00  1.4508E-001  
  408.50  1.4276E-001  
  409.00  1.4040E-001  
  409.50  1.3535E-001  
  410.00  1.2914E-001  
  410.50  1.2227E-001  
  411.00  1.1500E-001  
  411.50  1.0818E-001  
  412.00  1.0142E-001  
  412.50  9.4775E-002  
  413.00  8.8859E-002  
  413.50  8.3381E-002  
  414.00  7.8134E-002  
  414.50  7.2715E-002  
  415.00  6.7572E-002  
  415.50  6.2724E-002  
  416.00  5.8500E-002  
  416.50  5.4773E-002  
  417.00  5.1612E-002  
  417.50  4.8737E-002  
  418.00  4.6078E-002  
  418.50  4.3481E-002  
  419.00  4.1228E-002  
  419.50  3.9598E-002  
  420.00  3.8500E-002  
  420.50  3.7374E-002  
  421.00  3.6156E-002  
  421.50  3.4652E-002  
  422.00  3.3265E-002  
  422.50  3.2179E-002  
  423.00  3.1439E-002  
  423.50  3.1341E-002  
  424.00  3.1357E-002  
  424.50  3.1355E-002  
  425.00  3.1252E-002  
  425.50  3.1010E-002  
  426.00  3.1263E-002  
  426.50  3.1630E-002  
  427.00  3.1994E-002  
  427.50  3.2488E-002  
  428.00  3.2903E-002  
  428.50  3.3722E-002  
  429.00  3.4673E-002  
  429.50  3.5577E-002  
  430.00  3.6475E-002  
  430.50  3.7106E-002  
  431.00  3.8123E-002  
  431.50  3.9364E-002  
  432.00  4.1160E-002  
  432.50  4.3097E-002  
  433.00  4.4700E-002  
  433.50  4.6531E-002  
  434.00  4.8377E-002  
  434.50  5.0488E-002  
  435.00  5.2895E-002  
  435.50  5.5291E-002  
  436.00  5.8103E-002  
  436.50  6.0618E-002  
  437.00  6.2690E-002  
  437.50  6.4907E-002  
  438.00  6.7534E-002  
  438.50  7.1052E-002  
  439.00  7.4788E-002  
  439.50  7.8376E-002  
  440.00  8.2317E-002  
  440.50  8.6565E-002  
  441.00  9.0787E-002  
  441.50  9.5116E-002  
  442.00  9.9844E-002  
  442.50  1.0528E-001  
  443.00  1.1134E-001  
  443.50  1.1739E-001  
  444.00  1.2287E-001  
  444.50  1.2837E-001  
  445.00  1.3382E-001  
  445.50  1.4052E-001  
  446.00  1.4756E-001  
  446.50  1.5441E-001  
  447.00  1.6084E-001  
  447.50  1.6673E-001  
  448.00  1.7278E-001  
  448.50  1.7891E-001  
  449.00  1.8485E-001  
  449.50  1.9059E-001  
  450.00  1.9441E-001  
  450.50  1.9807E-001  
  451.00  2.0127E-001  
  451.50  2.0375E-001  
  452.00  2.0657E-001  
  452.50  2.0728E-001  
  453.00  2.0782E-001  
  453.50  2.0681E-001  
  454.00  2.0464E-001  
  454.50  2.0152E-001  
  455.00  1.9824E-001  
  455.50  1.9550E-001  
  456.00  1.9295E-001  
  456.50  1.9027E-001  
  457.00  1.8734E-001  
  457.50  1.8309E-001  
  458.00  1.7819E-001  
  458.50  1.7326E-001  
  459.00  1.6861E-001  
  459.50  1.6450E-001  
  460.00  1.6065E-001  
  460.50  1.5672E-001  
  461.00  1.5347E-001  
  461.50  1.5100E-001  
  462.00  1.4869E-001  
  462.50  1.4632E-001  
  463.00  1.4413E-001  
  463.50  1.4092E-001  
  464.00  1.3859E-001  
  464.50  1.3670E-001  
  465.00  1.3520E-001  
  465.50  1.3301E-001  
  466.00  1.3028E-001  
  466.50  1.2759E-001  
  467.00  1.2589E-001  
  467.50  1.2472E-001  
  468.00  1.2314E-001  
  468.50  1.2127E-001  
  469.00  1.1889E-001  
  469.50  1.1676E-001  
  470.00  1.1487E-001  
  470.50  1.1327E-001  
  471.00  1.1164E-001  
  471.50  1.0950E-001  
  472.00  1.0722E-001  
  472.50  1.0451E-001  
  473.00  1.0207E-001  
  473.50  1.0015E-001  
  474.00  9.8606E-002  
  474.50  9.7374E-002  
  475.00  9.5933E-002  
  475.50  9.4222E-002  
  476.00  9.2523E-002  
  476.50  9.1387E-002  
  477.00  9.0608E-002  
  477.50  8.9884E-002  
  478.00  8.9116E-002  
  478.50  8.8128E-002  
  479.00  8.7256E-002  
  479.50  8.6813E-002  
  480.00  8.7070E-002  
  480.50  8.7118E-002  
  481.00  8.6619E-002  
  481.50  8.6141E-002  
  482.00  8.5878E-002  
  482.50  8.6062E-002  
  483.00  8.6466E-002  
  483.50  8.6816E-002  
  484.00  8.7318E-002  
  484.50  8.7540E-002  
  485.00  8.7359E-002  
  485.50  8.7019E-002  
  486.00  8.7052E-002  
  486.50  8.7758E-002  
  487.00  8.8669E-002  
  487.50  8.9093E-002  
  488.00  8.9436E-002  
  488.50  9.0009E-002  
  489.00  9.0980E-002  
  489.50  9.1861E-002  
  490.00  9.2442E-002  
  490.50  9.2835E-002  
  491.00  9.3745E-002  
  491.50  9.4546E-002  
  492.00  9.5765E-002  
  492.50  9.6824E-002  
  493.00  9.7751E-002  
  493.50  9.8613E-002  
  494.00  9.9344E-002  
  494.50  1.0033E-001  
  495.00  1.0168E-001  
  495.50  1.0304E-001  
  496.00  1.0460E-001  
  496.50  1.0612E-001  
  497.00  1.0748E-001  
  497.50  1.0879E-001  
  498.00  1.0999E-001  
  498.50  1.1135E-001  
  499.00  1.1276E-001  
  499.50  1.1437E-001  
  500.00  1.1598E-001  
  500.50  1.1747E-001  
  501.00  1.1888E-001  
  501.50  1.2026E-001  
  502.00  1.2186E-001  
  502.50  1.2349E-001  
  503.00  1.2519E-001  
  503.50  1.2652E-001  
  504.00  1.2792E-001  
  504.50  1.2944E-001  
  505.00  1.3102E-001  
  505.50  1.3262E-001  
  506.00  1.3399E-001  
  506.50  1.3521E-001  
  507.00  1.3660E-001  
  507.50  1.3795E-001  
  508.00  1.3956E-001  
  508.50  1.4110E-001  
  509.00  1.4247E-001  
  509.50  1.4357E-001  
  510.00  1.4460E-001  
  510.50  1.4607E-001  
  511.00  1.4780E-001  
  511.50  1.4936E-001  
  512.00  1.5066E-001  
  512.50  1.5188E-001  
  513.00  1.5328E-001  
  513.50  1.5438E-001  
  514.00  1.5554E-001  
  514.50  1.5673E-001  
  515.00  1.5815E-001  
  515.50  1.5950E-001  
  516.00  1.6031E-001  
  516.50  1.6141E-001  
  517.00  1.6302E-001  
  517.50  1.6474E-001  
  518.00  1.6653E-001  
  518.50  1.6766E-001  
  519.00  1.6874E-001  
  519.50  1.6968E-001  
  520.00  1.7067E-001  
  520.50  1.7172E-001  
  521.00  1.7296E-001  
  521.50  1.7393E-001  
  522.00  1.7477E-001  
  522.50  1.7552E-001  
  523.00  1.7674E-001  
  523.50  1.7838E-001  
  524.00  1.8003E-001  
  524.50  1.8165E-001  
  525.00  1.8311E-001  
  525.50  1.8423E-001  
  526.00  1.8525E-001  
  526.50  1.8605E-001  
  527.00  1.8716E-001  
  527.50  1.8853E-001  
  528.00  1.8979E-001  
  528.50  1.9119E-001  
  529.00  1.9214E-001  
  529.50  1.9320E-001  
  530.00  1.9411E-001  
  530.50  1.9550E-001  
  531.00  1.9699E-001  
  531.50  1.9834E-001  
  532.00  1.9949E-001  
  532.50  2.0040E-001  
  533.00  2.0087E-001  
  533.50  2.0177E-001  
  534.00  2.0287E-001  
  534.50  2.0459E-001  
  535.00  2.0647E-001  
  535.50  2.0770E-001  
  536.00  2.0882E-001  
  536.50  2.0990E-001  
  537.00  2.1104E-001  
  537.50  2.1238E-001  
  538.00  2.1312E-001  
  538.50  2.1381E-001  
  539.00  2.1478E-001  
  539.50  2.1605E-001  
  540.00  2.1756E-001  
  540.50  2.1893E-001  
  541.00  2.2045E-001  
  541.50  2.2191E-001  
  542.00  2.2284E-001  
  542.50  2.2346E-001  
  543.00  2.2439E-001  
  543.50  2.2558E-001  
  544.00  2.2690E-001  
  544.50  2.2808E-001  
  545.00  2.2947E-001  
  545.50  2.3072E-001  
  546.00  2.3178E-001  
  546.50  2.3230E-001  
  547.00  2.3315E-001  
  547.50  2.3408E-001  
  548.00  2.3539E-001  
  548.50  2.3735E-001  
  549.00  2.3948E-001  
  549.50  2.4131E-001  
  550.00  2.4196E-001  
  550.50  2.4258E-001  
  551.00  2.4307E-001  
  551.50  2.4428E-001  
  552.00  2.4559E-001  
  552.50  2.4663E-001  
  553.00  2.4747E-001  
  553.50  2.4837E-001  
  554.00  2.4922E-001  
  554.50  2.5084E-001  
  555.00  2.5203E-001  
  555.50  2.5324E-001  
  556.00  2.5421E-001  
  556.50  2.5500E-001  
  557.00  2.5622E-001  
  557.50  2.5763E-001  
  558.00  2.5903E-001  
  558.50  2.6001E-001  
  559.00  2.6117E-001  
  559.50  2.6235E-001  
  560.00  2.6405E-001  
  560.50  2.6494E-001  
  561.00  2.6602E-001  
  561.50  2.6741E-001  
  562.00  2.6850E-001  
  562.50  2.7000E-001  
  563.00  2.7041E-001  
  563.50  2.7127E-001  
  564.00  2.7208E-001  
  564.50  2.7293E-001  
  565.00  2.7441E-001  
  565.50  2.7569E-001  
  566.00  2.7663E-001  
  566.50  2.7685E-001  
  567.00  2.7700E-001  
  567.50  2.7767E-001  
  568.00  2.7876E-001  
  568.50  2.7977E-001  
  569.00  2.8094E-001  
  569.50  2.8184E-001  
  570.00  2.8286E-001  
  570.50  2.8351E-001  
  571.00  2.8427E-001  
  571.50  2.8520E-001  
  572.00  2.8626E-001  
  572.50  2.8752E-001  
  573.00  2.8887E-001  
  573.50  2.9007E-001  
  574.00  2.9096E-001  
  574.50  2.9220E-001  
  575.00  2.9323E-001  
  575.50  2.9420E-001  
  576.00  2.9533E-001  
  576.50  2.9631E-001  
  577.00  2.9810E-001  
  577.50  2.9901E-001  
  578.00  2.9977E-001  
  578.50  3.0068E-001  
  579.00  3.0123E-001  
  579.50  3.0236E-001  
  580.00  3.0358E-001  
  580.50  3.0455E-001  
  581.00  3.0609E-001  
  581.50  3.0668E-001  
  582.00  3.0776E-001  
  582.50  3.0777E-001  
  583.00  3.0819E-001  
  583.50  3.0891E-001  
  584.00  3.1036E-001  
  584.50  3.1188E-001  
  585.00  3.1352E-001  
  585.50  3.1476E-001  
  586.00  3.1627E-001  
  586.50  3.1659E-001  
  587.00  3.1760E-001  
  587.50  3.1907E-001  
  588.00  3.2002E-001  
  588.50  3.2093E-001  
  589.00  3.2092E-001  
  589.50  3.2194E-001  
  590.00  3.2250E-001  
  590.50  3.2352E-001  
  591.00  3.2522E-001  
  591.50  3.2776E-001  
  592.00  3.3000E-001  
  592.50  3.3093E-001  
  593.00  3.3164E-001  
  593.50  3.3237E-001  
  594.00  3.3378E-001  
  594.50  3.3524E-001  
  595.00  3.3623E-001  
  595.50  3.3728E-001  
  596.00  3.3841E-001  
  596.50  3.3921E-001  
  597.00  3.3998E-001  
  597.50  3.4033E-001  
  598.00  3.4093E-001  
  598.50  3.4140E-001  
  599.00  3.4258E-001  
  599.50  3.4400E-001  
  600.00  3.4482E-001  
  600.50  3.4510E-001  
  601.00  3.4610E-001  
  601.50  3.4784E-001  
  602.00  3.4945E-001  
  602.50  3.5073E-001  
  603.00  3.5135E-001  
  603.50  3.5225E-001  
  604.00  3.5305E-001  
  604.50  3.5375E-001  
  605.00  3.5437E-001  
  605.50  3.5502E-001  
  606.00  3.5578E-001  
  606.50  3.5738E-001  
  607.00  3.5854E-001  
  607.50  3.6030E-001  
  608.00  3.6107E-001  
  608.50  3.6168E-001  
  609.00  3.6193E-001  
  609.50  3.6292E-001  
  610.00  3.6417E-001  
  610.50  3.6457E-001  
  611.00  3.6494E-001  
  611.50  3.6522E-001  
  612.00  3.6589E-001  
  612.50  3.6604E-001  
  613.00  3.6613E-001  
  613.50  3.6698E-001  
  614.00  3.6810E-001  
  614.50  3.6903E-001  
  615.00  3.6880E-001  
  615.50  3.6873E-001  
  616.00  3.6904E-001  
  616.50  3.6969E-001  
  617.00  3.7001E-001  
  617.50  3.7015E-001  
  618.00  3.7029E-001  
  618.50  3.7023E-001  
  619.00  3.7034E-001  
  619.50  3.7037E-001  
  620.00  3.7069E-001  
  620.50  3.7067E-001  
  621.00  3.7086E-001  
  621.50  3.7000E-001  
  622.00  3.6889E-001  
  622.50  3.6818E-001  
  623.00  3.6866E-001  
  623.50  3.6947E-001  
  624.00  3.6972E-001  
  624.50  3.6844E-001  
  625.00  3.6700E-001  
  625.50  3.6596E-001  
  626.00  3.6613E-001  
  626.50  3.6610E-001  
  627.00  3.6513E-001  
  627.50  3.6403E-001  
  628.00  3.6364E-001  
  628.50  3.6426E-001  
  629.00  3.6494E-001  
  629.50  3.6478E-001  
  630.00  3.6389E-001  
  630.50  3.6232E-001  
  631.00  3.6165E-001  
  631.50  3.6160E-001  
  632.00  3.6154E-001  
  632.50  3.6015E-001  
  633.00  3.5847E-001  
  633.50  3.5706E-001  
  634.00  3.5752E-001  
  634.50  3.5713E-001  
  635.00  3.5646E-001  
  635.50  3.5463E-001  
  636.00  3.5286E-001  
  636.50  3.5199E-001  
  637.00  3.5073E-001  
  637.50  3.5035E-001  
  638.00  3.4935E-001  
  638.50  3.4863E-001  
  639.00  3.4706E-001  
  639.50  3.4503E-001  
  640.00  3.4377E-001  
  640.50  3.4276E-001  
  641.00  3.4149E-001  
  641.50  3.3922E-001  
  642.00  3.3774E-001  
  642.50  3.3670E-001  
  643.00  3.3624E-001  
  643.50  3.3465E-001  
  644.00  3.3259E-001  
  644.50  3.3011E-001  
  645.00  3.2882E-001  
  645.50  3.2782E-001  
  646.00  3.2653E-001  
  646.50  3.2480E-001  
  647.00  3.2318E-001  
  647.50  3.2150E-001  
  648.00  3.1959E-001  
  648.50  3.1782E-001  
  649.00  3.1649E-001  
  649.50  3.1493E-001  
  650.00  3.1300E-001  
  650.50  3.1143E-001  
  651.00  3.0996E-001  
  651.50  3.0847E-001  
  652.00  3.0678E-001  
  652.50  3.0453E-001  
  653.00  3.0234E-001  
  653.50  2.9979E-001  
  654.00  2.9811E-001  
  654.50  2.9641E-001  
  655.00  2.9402E-001  
  655.50  2.9099E-001  
  656.00  2.8794E-001  
  656.50  2.8571E-001  
  657.00  2.8410E-001  
  657.50  2.8322E-001  
  658.00  2.8240E-001  
  658.50  2.8089E-001  
  659.00  2.7778E-001  
  659.50  2.7468E-001  
  660.00  2.7246E-001  
  660.50  2.7103E-001  
  661.00  2.6914E-001  
  661.50  2.6656E-001  
  662.00  2.6419E-001  
  662.50  2.6235E-001  
  663.00  2.6042E-001  
  663.50  2.5835E-001  
  664.00  2.5559E-001  
  664.50  2.5238E-001  
  665.00  2.4972E-001  
  665.50  2.4747E-001  
  666.00  2.4534E-001  
  666.50  2.4306E-001  
  667.00  2.4153E-001  
  667.50  2.3956E-001  
  668.00  2.3695E-001  
  668.50  2.3346E-001  
  669.00  2.3060E-001  
  669.50  2.2804E-001  
  670.00  2.2563E-001  
  670.50  2.2355E-001  
  671.00  2.2147E-001  
  671.50  2.1965E-001  
  672.00  2.1804E-001  
  672.50  2.1600E-001  
  673.00  2.1385E-001  
  673.50  2.1144E-001  
  674.00  2.0943E-001  
  674.50  2.0702E-001  
  675.00  2.0484E-001  
  675.50  2.0290E-001  
  676.00  2.0105E-001  
  676.50  1.9879E-001  
  677.00  1.9603E-001  
  677.50  1.9363E-001  
  678.00  1.9108E-001  
  678.50  1.8915E-001  
  679.00  1.8721E-001  
  679.50  1.8530E-001  
  680.00  1.8285E-001  
  680.50  1.8015E-001  
  681.00  1.7778E-001  
  681.50  1.7620E-001  
  682.00  1.7466E-001  
  682.50  1.7322E-001  
  683.00  1.7124E-001  
  683.50  1.6935E-001  
  684.00  1.6679E-001  
  684.50  1.6433E-001  
  685.00  1.6206E-001  
  685.50  1.5984E-001  
  686.00  1.5757E-001  
  686.50  1.5575E-001  
  687.00  1.5463E-001  
  687.50  1.5396E-001  
  688.00  1.5273E-001  
  688.50  1.5037E-001  
  689.00  1.4699E-001  
  689.50  1.4440E-001  
  690.00  1.4317E-001  
  690.50  1.4194E-001  
  691.00  1.4026E-001  
  691.50  1.3880E-001  
  692.00  1.3832E-001  
  692.50  1.3873E-001  
  693.00  1.3928E-001  
  693.50  1.3953E-001  
  694.00  1.3846E-001  
  694.50  1.3560E-001  
  695.00  1.3208E-001  
  695.50  1.2882E-001  
  696.00  1.2650E-001  
  696.50  1.2413E-001  
  697.00  1.2144E-001  
  697.50  1.1911E-001  
  698.00  1.1721E-001  
  698.50  1.1584E-001  
  699.00  1.1407E-001  
  699.50  1.1260E-001  
  700.00  1.1137E-001  
  700.50  1.1002E-001  
  701.00  1.0843E-001  
  701.50  1.0624E-001  
  702.00  1.0453E-001  
  702.50  1.0282E-001  
  703.00  1.0116E-001  
  703.50  9.9782E-002  
  704.00  9.8835E-002  
  704.50  9.7677E-002  
  705.00  9.6142E-002  
  705.50  9.4883E-002  
  706.00  9.4023E-002  
  706.50  9.2966E-002  
  707.00  9.1799E-002  
  707.50  9.0987E-002  
  708.00  8.9963E-002  
  708.50  8.8655E-002  
  709.00  8.7078E-002  
  709.50  8.5989E-002  
  710.00  8.4910E-002  
  710.50  8.3944E-002  
  711.00  8.2738E-002  
  711.50  8.1270E-002  
  712.00  7.9790E-002  
  712.50  7.8801E-002  
  713.00  7.8031E-002  
  713.50  7.6893E-002  
  714.00  7.5459E-002  
  714.50  7.4391E-002  
  715.00  7.3439E-002  
  715.50  7.2339E-002  
  716.00  7.1072E-002  
  716.50  6.9331E-002  
  717.00  6.7993E-002  
  717.50  6.7276E-002  
  718.00  6.6554E-002  
  718.50  6.5426E-002  
  719.00  6.4156E-002  
  719.50  6.3620E-002  
  720.00  6.2672E-002  
  720.50  6.1987E-002  
  721.00  6.1032E-002  
  721.50  6.0251E-002  
  722.00  5.9257E-002  
  722.50  5.8763E-002  
  723.00  5.8083E-002  
  723.50  5.7655E-002  
  724.00  5.6670E-002  
  724.50  5.5023E-002  
  725.00  5.3559E-002  
  725.50  5.2716E-002  
  726.00  5.2546E-002  
  726.50  5.1432E-002  
  727.00  4.9957E-002  
  727.50  4.8689E-002  
  728.00  4.8313E-002  
  728.50  4.8531E-002  
  729.00  4.8423E-002  
  729.50  4.7973E-002  
  730.00  4.7491E-002  
  730.50  4.6696E-002  
  731.00  4.5651E-002  
  731.50  4.4571E-002  
  732.00  4.3783E-002  
  732.50  4.3425E-002  
  733.00  4.2528E-002  
  733.50  4.1962E-002  
  734.00  4.1735E-002  
  734.50  4.1613E-002  
  735.00  4.0269E-002  
  735.50  3.8433E-002  
  736.00  3.7404E-002  
  736.50  3.7557E-002  
  737.00  3.8167E-002  
  737.50  3.8138E-002  
  738.00  3.7150E-002  
  738.50  3.5985E-002  
  739.00  3.5392E-002  
  739.50  3.5167E-002  
  740.00  3.4952E-002  
  740.50  3.4847E-002  
  741.00  3.4521E-002  
  741.50  3.3432E-002  
  742.00  3.2436E-002  
  742.50  3.1646E-002  
  743.00  3.1160E-002  
  743.50  3.0828E-002  
  744.00  3.0650E-002  
  744.50  2.9929E-002  
  745.00  2.9003E-002  
  745.50  2.8490E-002  
  746.00  2.8033E-002  
  746.50  2.7599E-002  
  747.00  2.7184E-002  
  747.50  2.7147E-002  
  748.00  2.7181E-002  
  748.50  2.6894E-002  
  749.00  2.6601E-002  
  749.50  2.6086E-002  
  750.00  2.5694E-002  
  750.50  2.5143E-002  
  751.00  2.4745E-002  
  751.50  2.4444E-002  
  752.00  2.4195E-002  
  752.50  2.3714E-002  
  753.00  2.2916E-002  
  753.50  2.2375E-002  
  754.00  2.2374E-002  
  754.50  2.2685E-002  
  755.00  2.2609E-002  
  755.50  2.2173E-002  
  756.00  2.1626E-002  
  756.50  2.1114E-002  
  757.00  2.0357E-002  
  757.50  2.0182E-002  
  758.00  2.0457E-002  
  758.50  2.0907E-002  
  759.00  2.0649E-002  
  759.50  1.9931E-002  
  760.00  1.9642E-002  
  760.50  1.9350E-002  
  761.00  1.8596E-002  
  761.50  1.8254E-002  
  762.00  1.8599E-002  
  762.50  1.8636E-002  
  763.00  1.7742E-002  
  763.50  1.7402E-002  
  764.00  1.7518E-002  
  764.50  1.7128E-002  
  765.00  1.6904E-002  
  765.50  1.6958E-002  
  766.00  1.6716E-002  
  766.50  1.5974E-002  
  767.00  1.5179E-002  
  767.50  1.4430E-002  
  768.00  1.4133E-002  
  768.50  1.4247E-002  
  769.00  1.4108E-002  
  769.50  1.3125E-002  
  770.00  1.2861E-002  
  770.50  1.2951E-002  
  771.00  1.2975E-002  
  771.50  1.2985E-002  
  772.00  1.3485E-002  
  772.50  1.3805E-002  
  773.00  1.3536E-002  
  773.50  1.2663E-002  
  774.00  1.2056E-002  
  774.50  1.1938E-002  
  775.00  1.1854E-002  
  775.50  1.1851E-002  
  776.00  1.1971E-002  
  776.50  1.2113E-002  
  777.00  1.2319E-002  
  777.50  1.1751E-002  
  778.00  1.0533E-002  
  778.50  1.0436E-002  
  779.00  1.0538E-002  
  779.50  1.0271E-002  
  780.00  9.9333E-003  
  780.50  1.0227E-002  
  781.00  1.0516E-002  
  781.50  1.1178E-002  
  782.00  1.1713E-002  
  782.50  1.1905E-002  
  783.00  1.0936E-002  
  783.50  1.0250E-002  
  784.00  9.4757E-003  
  784.50  9.4918E-003  
  785.00  9.9644E-003  
  785.50  1.0939E-002  
  786.00  1.0496E-002  
  786.50  9.8111E-003  
  787.00  8.9347E-003  
  787.50  8.7492E-003  
  788.00  8.9724E-003  
  788.50  9.4448E-003  
  789.00  9.3161E-003  
  789.50  8.6255E-003  
  790.00  8.3686E-003  
  790.50  8.3005E-003  
  791.00  8.1033E-003  
  791.50  7.4604E-003  
  792.00  7.4401E-003  
  792.50  8.1068E-003  
  793.00  7.8221E-003  
  793.50  6.6696E-003  
  794.00  6.8641E-003  
  794.50  7.8467E-003  
  795.00  7.7437E-003  
  795.50  7.6594E-003  
  796.00  7.9921E-003  
  796.50  7.8355E-003  
  797.00  6.9260E-003  
  797.50  6.5236E-003  
  798.00  7.5265E-003  
  798.50  7.7804E-003  
  799.00  6.7213E-003  
  799.50  6.0339E-003  
  800.00  5.7224E-003  
  800.50  5.4124E-003  
  801.00  4.7672E-003  
  801.50  4.9060E-003  
  802.00  6.1778E-003  
  802.50  7.3245E-003  
  803.00  7.8981E-003  
  803.50  7.9144E-003  
  804.00  8.4439E-003  
  804.50  9.1645E-003  
  805.00  8.9819E-003  
  805.50  8.5140E-003  
  806.00  8.0718E-003  
  806.50  8.6959E-003  
  807.00  7.5622E-003  
  807.50  7.3108E-003  
  808.00  6.5890E-003  
  808.50  6.2665E-003  
  809.00  6.3519E-003  
  809.50  6.4619E-003  
  810.00  6.5200E-003  
  810.50  7.9185E-003  
  811.00  8.8968E-003  
  811.50  7.7277E-003  
  812.00  6.5475E-003  
  812.50  6.6545E-003  
  813.00  6.6421E-003  
  813.50  6.6290E-003  
  814.00  6.3952E-003  
  814.50  5.8267E-003  
  815.00  5.1505E-003  
  815.50  5.5361E-003  
  816.00  5.9273E-003  
  816.50  5.6079E-003  
  817.00  4.9291E-003  
  817.50  4.6277E-003  
  818.00  4.4001E-003  
  818.50  5.0762E-003  
  819.00  6.1266E-003  
  819.50  5.9236E-003  
  820.00  5.6329E-003  
  820.50  5.9578E-003  
  821.00  5.8097E-003  
  821.50  3.9140E-003  
  822.00  4.0460E-003  
  822.50  4.9613E-003  
  823.00  4.9486E-003  
  823.50  4.8748E-003  
  824.00  5.5984E-003  
  824.50  6.2037E-003  
  825.00  6.3272E-003  
  825.50  5.6287E-003  
  826.00  4.6727E-003  
  826.50  4.3729E-003  
  827.00  5.1010E-003  
  827.50  5.0402E-003  
  828.00  5.1889E-003  
  828.50  4.9278E-003  
  829.00  5.2076E-003  
  829.50  4.4902E-003  
  830.00  4.4234E-003  
  830.50  3.8270E-003  
  831.00  4.5414E-003  
  831.50  5.1255E-003  
  832.00  5.8656E-003  
  832.50  6.7326E-003  
  833.00  6.5730E-003  
  833.50  3.9841E-003  
  834.00  3.4270E-003  
  834.50  3.2775E-003  
  835.00  4.4161E-003  
  835.50  6.6241E-003  
  836.00  6.3096E-003  
  836.50  4.8605E-003  
  837.00  4.5518E-003  
  837.50  3.5232E-003  
  838.00  2.3526E-003  
  838.50  3.9819E-003  
  839.00  4.9114E-003  
  839.50  3.3680E-003  
  840.00  2.0328E-003  
  840.50  3.1430E-003  
  841.00  2.6550E-003  
  841.50  1.8479E-003  
  842.00  1.6501E-003  
  842.50  2.4832E-003  
  843.00  2.8468E-003  
  843.50  3.7179E-003  
  844.00  3.4737E-003  
  844.50  2.6659E-003  
  845.00  3.8445E-003  
  845.50  5.0274E-003  
  846.00  4.2049E-003  
  846.50  3.2584E-003  
  847.00  3.5455E-003  
  847.50  4.5579E-003  
  848.00  3.2808E-003  
  848.50  2.2064E-003  
  849.00  2.7395E-003  
  849.50  2.3729E-003  
  850.00  3.3076E-003  
  850.50  4.3104E-003  
  851.00  5.8816E-003  
  851.50  4.1099E-003  
  852.00  2.7190E-003  
  852.50  3.2905E-003  
  853.00  5.3507E-003  
  853.50  7.1693E-003  
  854.00  6.3283E-003  
  854.50  3.9808E-003  
  855.00  3.7112E-003  
  855.50  4.3776E-003  
  856.00  4.1874E-003  
  856.50  2.2249E-003  
  857.00  2.2921E-003  
  857.50  3.5761E-003  
  858.00  3.6741E-003  
  858.50  3.4720E-003  
  859.00  4.5986E-003  
  859.50  5.6438E-003  
  860.00  5.3196E-003  
  860.50  5.1319E-003  
  861.00  3.4633E-003  
  861.50  2.0507E-003  
  862.00  4.1020E-003  
  862.50  6.6700E-003  
  863.00  6.5093E-003  
  863.50  5.2663E-003  
  864.00  3.6737E-003  
  864.50  3.6365E-003  
  865.00  4.0092E-003  
  865.50  2.4825E-003  
  866.00  1.0282E-003  
  866.50  0.0000E+000  
  867.00  0.0000E+000  
  867.50  5.1961E-004  
  868.00  3.9479E-003  
  868.50  5.4550E-003  
  869.00  3.5157E-003  
  869.50  2.3546E-003  
  870.00  3.2219E-003  
  870.50  2.9581E-003  
  871.00  3.6337E-003  
  871.50  5.6574E-003  
  872.00  8.0242E-003  
  872.50  8.4680E-003  
  873.00  4.7504E-003  
  873.50  2.9793E-003  
  874.00  2.6381E-003  
  874.50  1.6194E-003  
  875.00  0.0000E+000  
  875.50  1.3897E-003  
  876.00  4.6232E-003  
  876.50  6.6262E-003  
  877.00  3.9710E-003  
  877.50  1.7298E-003  
  878.00  2.6598E-003  
  878.50  5.4367E-003  
  879.00  6.7776E-003  
  879.50  6.0260E-003  
  880.00  4.6955E-003  
  880.50  5.6162E-003  
  881.00  5.6092E-003  
  881.50  6.7833E-003  
  882.00  5.8179E-003  
  882.50  3.2929E-003  
  883.00  1.5434E-003  
  883.50  1.7288E-003  
  884.00  3.3555E-003  
  884.50  4.2004E-003  
  885.00  5.5889E-003  
  885.50  1.1504E-002  
  886.00  1.2373E-002  
  886.50  8.3170E-003  
  887.00  4.4837E-003  
  887.50  2.4337E-003  
  888.00  4.4042E-003  
  888.50  7.8325E-003  
  889.00  1.0271E-002  
  889.50  6.9829E-003  
  890.00  5.3138E-003  
  890.50  4.7395E-003  
  891.00  4.4245E-003  
  891.50  4.2694E-003  
  892.00  5.1987E-003  
  892.50  4.8469E-003  
  893.00  2.4673E-003  
  893.50  2.0409E-004  
  894.00  0.0000E+000  
  894.50  0.0000E+000  
  895.00  4.2554E-003  
  895.50  8.0942E-003  
  896.00  5.6304E-003  
  896.50  2.3841E-003  
  897.00  2.0346E-003  
  897.50  6.2985E-003  
  898.00  8.1583E-003  
  898.50  1.0697E-002  
  899.00  1.2139E-002  
  899.50  2.6486E-004  
