
# From lspdd.org
# 
# Name: INC GE A19 Domestique
# Indice spectral Valeur 
# MSI 0.24 
# SLI 0.45 
# IPI 1.05 
# Pourcentage de bleu 9.4 
# Caractéristique Valeur 
# CCT calculée (K) 2298 
# CCT du fabricant (K) 2300 
# Tension (V) 130 
# Puissance (W) 250.0 
# Efficacité lumineuse (Lum/W) ND 
#
# Image: '/app/system/img_2s/2729/medium_image2.jpg?1612236450'
# Image: '/app/system/img_1s/2729/medium_image1.jpg?1612236447'
# 

  273.00  0.0000E+000  
  273.50  0.0000E+000  
  274.00  0.0000E+000  
  274.50  0.0000E+000  
  275.00  0.0000E+000  
  275.50  0.0000E+000  
  276.00  0.0000E+000  
  276.50  0.0000E+000  
  277.00  0.0000E+000  
  277.50  0.0000E+000  
  278.00  0.0000E+000  
  278.50  0.0000E+000  
  279.00  0.0000E+000  
  279.50  0.0000E+000  
  280.00  0.0000E+000  
  280.50  0.0000E+000  
  281.00  0.0000E+000  
  281.50  0.0000E+000  
  282.00  0.0000E+000  
  282.50  0.0000E+000  
  283.00  0.0000E+000  
  283.50  0.0000E+000  
  284.00  0.0000E+000  
  284.50  0.0000E+000  
  285.00  0.0000E+000  
  285.50  0.0000E+000  
  286.00  0.0000E+000  
  286.50  0.0000E+000  
  287.00  0.0000E+000  
  287.50  0.0000E+000  
  288.00  0.0000E+000  
  288.50  0.0000E+000  
  289.00  0.0000E+000  
  289.50  0.0000E+000  
  290.00  0.0000E+000  
  290.50  0.0000E+000  
  291.00  0.0000E+000  
  291.50  0.0000E+000  
  292.00  0.0000E+000  
  292.50  0.0000E+000  
  293.00  0.0000E+000  
  293.50  0.0000E+000  
  294.00  0.0000E+000  
  294.50  0.0000E+000  
  295.00  0.0000E+000  
  295.50  0.0000E+000  
  296.00  0.0000E+000  
  296.50  0.0000E+000  
  297.00  0.0000E+000  
  297.50  0.0000E+000  
  298.00  0.0000E+000  
  298.50  0.0000E+000  
  299.00  0.0000E+000  
  299.50  0.0000E+000  
  300.00  1.7877E-004  
  300.50  4.4670E-004  
  301.00  3.9125E-004  
  301.50  3.6272E-004  
  302.00  4.0597E-004  
  302.50  4.3624E-004  
  303.00  2.9810E-004  
  303.50  3.6355E-004  
  304.00  5.1987E-004  
  304.50  6.8271E-004  
  305.00  8.9737E-004  
  305.50  1.1341E-003  
  306.00  1.1273E-003  
  306.50  1.3680E-003  
  307.00  1.7626E-003  
  307.50  1.9655E-003  
  308.00  1.7985E-003  
  308.50  1.5366E-003  
  309.00  1.1909E-003  
  309.50  9.6013E-004  
  310.00  9.7305E-004  
  310.50  9.5857E-004  
  311.00  8.3575E-004  
  311.50  9.0977E-004  
  312.00  1.2686E-003  
  312.50  1.6435E-003  
  313.00  2.0732E-003  
  313.50  1.7429E-003  
  314.00  1.1769E-003  
  314.50  7.3994E-004  
  315.00  5.4933E-004  
  315.50  5.8474E-004  
  316.00  4.2353E-004  
  316.50  4.5374E-004  
  317.00  3.7909E-004  
  317.50  3.4658E-004  
  318.00  5.6703E-004  
  318.50  6.8269E-004  
  319.00  7.3041E-004  
  319.50  9.2559E-004  
  320.00  8.5248E-004  
  320.50  9.7275E-004  
  321.00  1.3069E-003  
  321.50  1.5145E-003  
  322.00  1.6448E-003  
  322.50  1.3589E-003  
  323.00  1.3600E-003  
  323.50  1.5672E-003  
  324.00  1.6702E-003  
  324.50  2.0081E-003  
  325.00  2.1353E-003  
  325.50  2.2860E-003  
  326.00  2.3812E-003  
  326.50  2.2510E-003  
  327.00  2.0217E-003  
  327.50  1.6378E-003  
  328.00  1.3663E-003  
  328.50  9.2678E-004  
  329.00  9.6820E-004  
  329.50  1.2988E-003  
  330.00  1.5533E-003  
  330.50  1.8378E-003  
  331.00  1.6445E-003  
  331.50  1.6313E-003  
  332.00  1.6911E-003  
  332.50  1.8563E-003  
  333.00  1.9682E-003  
  333.50  1.8821E-003  
  334.00  1.9413E-003  
  334.50  2.0692E-003  
  335.00  2.2219E-003  
  335.50  2.4043E-003  
  336.00  2.1126E-003  
  336.50  1.7608E-003  
  337.00  1.7496E-003  
  337.50  1.8144E-003  
  338.00  2.1249E-003  
  338.50  2.2780E-003  
  339.00  2.0980E-003  
  339.50  1.8520E-003  
  340.00  1.5794E-003  
  340.50  1.4923E-003  
  341.00  1.6821E-003  
  341.50  2.0036E-003  
  342.00  2.1140E-003  
  342.50  2.0201E-003  
  343.00  1.6777E-003  
  343.50  1.4254E-003  
  344.00  1.2466E-003  
  344.50  1.3112E-003  
  345.00  1.6936E-003  
  345.50  2.1656E-003  
  346.00  2.7330E-003  
  346.50  2.9200E-003  
  347.00  2.7394E-003  
  347.50  2.4075E-003  
  348.00  2.0769E-003  
  348.50  2.1107E-003  
  349.00  2.2512E-003  
  349.50  2.4989E-003  
  350.00  2.5754E-003  
  350.50  2.6805E-003  
  351.00  2.9088E-003  
  351.50  3.1507E-003  
  352.00  3.3557E-003  
  352.50  3.1689E-003  
  353.00  2.9892E-003  
  353.50  2.8477E-003  
  354.00  2.8724E-003  
  354.50  3.1752E-003  
  355.00  3.5076E-003  
  355.50  3.7055E-003  
  356.00  3.7097E-003  
  356.50  3.6022E-003  
  357.00  3.6358E-003  
  357.50  3.8299E-003  
  358.00  4.0924E-003  
  358.50  4.1741E-003  
  359.00  4.2039E-003  
  359.50  4.0004E-003  
  360.00  3.9312E-003  
  360.50  3.7473E-003  
  361.00  3.5675E-003  
  361.50  3.2263E-003  
  362.00  3.0175E-003  
  362.50  3.1941E-003  
  363.00  3.5199E-003  
  363.50  3.9291E-003  
  364.00  4.0883E-003  
  364.50  3.9277E-003  
  365.00  3.9414E-003  
  365.50  3.8381E-003  
  366.00  4.1628E-003  
  366.50  4.3843E-003  
  367.00  4.6405E-003  
  367.50  4.9145E-003  
  368.00  4.9028E-003  
  368.50  4.9385E-003  
  369.00  5.0636E-003  
  369.50  5.2285E-003  
  370.00  5.5473E-003  
  370.50  5.4988E-003  
  371.00  5.2577E-003  
  371.50  4.9965E-003  
  372.00  4.9747E-003  
  372.50  5.3350E-003  
  373.00  5.4744E-003  
  373.50  5.6586E-003  
  374.00  5.6682E-003  
  374.50  5.5892E-003  
  375.00  5.5749E-003  
  375.50  5.6560E-003  
  376.00  6.0233E-003  
  376.50  6.4669E-003  
  377.00  6.7285E-003  
  377.50  6.6254E-003  
  378.00  6.5236E-003  
  378.50  6.3754E-003  
  379.00  6.3610E-003  
  379.50  6.4455E-003  
  380.00  6.6590E-003  
  380.50  6.8778E-003  
  381.00  7.0698E-003  
  381.50  7.2836E-003  
  382.00  7.2352E-003  
  382.50  7.1290E-003  
  383.00  7.0813E-003  
  383.50  7.0661E-003  
  384.00  7.2863E-003  
  384.50  7.5210E-003  
  385.00  7.6696E-003  
  385.50  7.7113E-003  
  386.00  7.7468E-003  
  386.50  7.8107E-003  
  387.00  7.8734E-003  
  387.50  8.1259E-003  
  388.00  8.4278E-003  
  388.50  8.7095E-003  
  389.00  8.9427E-003  
  389.50  8.7906E-003  
  390.00  8.8117E-003  
  390.50  8.8284E-003  
  391.00  8.9401E-003  
  391.50  8.8963E-003  
  392.00  8.7436E-003  
  392.50  8.7611E-003  
  393.00  9.0380E-003  
  393.50  9.4776E-003  
  394.00  9.8231E-003  
  394.50  1.0154E-002  
  395.00  9.9797E-003  
  395.50  9.9871E-003  
  396.00  1.0144E-002  
  396.50  1.0141E-002  
  397.00  1.0532E-002  
  397.50  1.0592E-002  
  398.00  1.0563E-002  
  398.50  1.0712E-002  
  399.00  1.0759E-002  
  399.50  1.0955E-002  
  400.00  1.1051E-002  
  400.50  1.1079E-002  
  401.00  1.1245E-002  
  401.50  1.1552E-002  
  402.00  1.1864E-002  
  402.50  1.2128E-002  
  403.00  1.2523E-002  
  403.50  1.2943E-002  
  404.00  1.3182E-002  
  404.50  1.3274E-002  
  405.00  1.3190E-002  
  405.50  1.3150E-002  
  406.00  1.3246E-002  
  406.50  1.3194E-002  
  407.00  1.3263E-002  
  407.50  1.3574E-002  
  408.00  1.3978E-002  
  408.50  1.4528E-002  
  409.00  1.4767E-002  
  409.50  1.4809E-002  
  410.00  1.5016E-002  
  410.50  1.5240E-002  
  411.00  1.5560E-002  
  411.50  1.5683E-002  
  412.00  1.5512E-002  
  412.50  1.5249E-002  
  413.00  1.4978E-002  
  413.50  1.5128E-002  
  414.00  1.5555E-002  
  414.50  1.6125E-002  
  415.00  1.6614E-002  
  415.50  1.6925E-002  
  416.00  1.6965E-002  
  416.50  1.6842E-002  
  417.00  1.6869E-002  
  417.50  1.7090E-002  
  418.00  1.7559E-002  
  418.50  1.8020E-002  
  419.00  1.8249E-002  
  419.50  1.8235E-002  
  420.00  1.8073E-002  
  420.50  1.8199E-002  
  421.00  1.8554E-002  
  421.50  1.8899E-002  
  422.00  1.9209E-002  
  422.50  1.9300E-002  
  423.00  1.9622E-002  
  423.50  1.9971E-002  
  424.00  2.0547E-002  
  424.50  2.0966E-002  
  425.00  2.1164E-002  
  425.50  2.1571E-002  
  426.00  2.1510E-002  
  426.50  2.1535E-002  
  427.00  2.1502E-002  
  427.50  2.1331E-002  
  428.00  2.1320E-002  
  428.50  2.1741E-002  
  429.00  2.2181E-002  
  429.50  2.2655E-002  
  430.00  2.3019E-002  
  430.50  2.2890E-002  
  431.00  2.3195E-002  
  431.50  2.3485E-002  
  432.00  2.3869E-002  
  432.50  2.4329E-002  
  433.00  2.4266E-002  
  433.50  2.4857E-002  
  434.00  2.5327E-002  
  434.50  2.5647E-002  
  435.00  2.5712E-002  
  435.50  2.5742E-002  
  436.00  2.6169E-002  
  436.50  2.6695E-002  
  437.00  2.6744E-002  
  437.50  2.6776E-002  
  438.00  2.6824E-002  
  438.50  2.7252E-002  
  439.00  2.7734E-002  
  439.50  2.8284E-002  
  440.00  2.8966E-002  
  440.50  2.9576E-002  
  441.00  2.9587E-002  
  441.50  2.9297E-002  
  442.00  2.9250E-002  
  442.50  2.9604E-002  
  443.00  3.0237E-002  
  443.50  3.0649E-002  
  444.00  3.0711E-002  
  444.50  3.0675E-002  
  445.00  3.0754E-002  
  445.50  3.1120E-002  
  446.00  3.1653E-002  
  446.50  3.2262E-002  
  447.00  3.2893E-002  
  447.50  3.3401E-002  
  448.00  3.3584E-002  
  448.50  3.3560E-002  
  449.00  3.3645E-002  
  449.50  3.3768E-002  
  450.00  3.4023E-002  
  450.50  3.4214E-002  
  451.00  3.4361E-002  
  451.50  3.4760E-002  
  452.00  3.5336E-002  
  452.50  3.5780E-002  
  453.00  3.6173E-002  
  453.50  3.6319E-002  
  454.00  3.6561E-002  
  454.50  3.6926E-002  
  455.00  3.7515E-002  
  455.50  3.7969E-002  
  456.00  3.8264E-002  
  456.50  3.8783E-002  
  457.00  3.9357E-002  
  457.50  3.9811E-002  
  458.00  4.0125E-002  
  458.50  4.0334E-002  
  459.00  4.0758E-002  
  459.50  4.1136E-002  
  460.00  4.1607E-002  
  460.50  4.2073E-002  
  461.00  4.2681E-002  
  461.50  4.3462E-002  
  462.00  4.3695E-002  
  462.50  4.4209E-002  
  463.00  4.4712E-002  
  463.50  4.5173E-002  
  464.00  4.5727E-002  
  464.50  4.5967E-002  
  465.00  4.6330E-002  
  465.50  4.6473E-002  
  466.00  4.6915E-002  
  466.50  4.7084E-002  
  467.00  4.7759E-002  
  467.50  4.8641E-002  
  468.00  4.9551E-002  
  468.50  5.0247E-002  
  469.00  5.0454E-002  
  469.50  5.0728E-002  
  470.00  5.1220E-002  
  470.50  5.2270E-002  
  471.00  5.2869E-002  
  471.50  5.3391E-002  
  472.00  5.3451E-002  
  472.50  5.3664E-002  
  473.00  5.4136E-002  
  473.50  5.4585E-002  
  474.00  5.5097E-002  
  474.50  5.5647E-002  
  475.00  5.6139E-002  
  475.50  5.6683E-002  
  476.00  5.6933E-002  
  476.50  5.6977E-002  
  477.00  5.7373E-002  
  477.50  5.7896E-002  
  478.00  5.8542E-002  
  478.50  5.9006E-002  
  479.00  5.9331E-002  
  479.50  5.9547E-002  
  480.00  6.0173E-002  
  480.50  6.0787E-002  
  481.00  6.1139E-002  
  481.50  6.1535E-002  
  482.00  6.1763E-002  
  482.50  6.2373E-002  
  483.00  6.2736E-002  
  483.50  6.3060E-002  
  484.00  6.3380E-002  
  484.50  6.3729E-002  
  485.00  6.4201E-002  
  485.50  6.4374E-002  
  486.00  6.4549E-002  
  486.50  6.4729E-002  
  487.00  6.4933E-002  
  487.50  6.5066E-002  
  488.00  6.5356E-002  
  488.50  6.5888E-002  
  489.00  6.6416E-002  
  489.50  6.6780E-002  
  490.00  6.6960E-002  
  490.50  6.7051E-002  
  491.00  6.7434E-002  
  491.50  6.7902E-002  
  492.00  6.8718E-002  
  492.50  6.9210E-002  
  493.00  6.9145E-002  
  493.50  6.8919E-002  
  494.00  6.8753E-002  
  494.50  6.9213E-002  
  495.00  7.0010E-002  
  495.50  7.0867E-002  
  496.00  7.1637E-002  
  496.50  7.2246E-002  
  497.00  7.2870E-002  
  497.50  7.3261E-002  
  498.00  7.3577E-002  
  498.50  7.3905E-002  
  499.00  7.4254E-002  
  499.50  7.4651E-002  
  500.00  7.5072E-002  
  500.50  7.5410E-002  
  501.00  7.5721E-002  
  501.50  7.6232E-002  
  502.00  7.6741E-002  
  502.50  7.7415E-002  
  503.00  7.7978E-002  
  503.50  7.8620E-002  
  504.00  7.9227E-002  
  504.50  8.0016E-002  
  505.00  8.0627E-002  
  505.50  8.1175E-002  
  506.00  8.1582E-002  
  506.50  8.2246E-002  
  507.00  8.2937E-002  
  507.50  8.3612E-002  
  508.00  8.4148E-002  
  508.50  8.4483E-002  
  509.00  8.4856E-002  
  509.50  8.5073E-002  
  510.00  8.5607E-002  
  510.50  8.6123E-002  
  511.00  8.7005E-002  
  511.50  8.7708E-002  
  512.00  8.8418E-002  
  512.50  8.8941E-002  
  513.00  8.9481E-002  
  513.50  9.0000E-002  
  514.00  9.0725E-002  
  514.50  9.1391E-002  
  515.00  9.1931E-002  
  515.50  9.2568E-002  
  516.00  9.3177E-002  
  516.50  9.3755E-002  
  517.00  9.4266E-002  
  517.50  9.4551E-002  
  518.00  9.5335E-002  
  518.50  9.6290E-002  
  519.00  9.7543E-002  
  519.50  9.8526E-002  
  520.00  9.9493E-002  
  520.50  1.0030E-001  
  521.00  1.0116E-001  
  521.50  1.0166E-001  
  522.00  1.0193E-001  
  522.50  1.0221E-001  
  523.00  1.0274E-001  
  523.50  1.0346E-001  
  524.00  1.0420E-001  
  524.50  1.0512E-001  
  525.00  1.0627E-001  
  525.50  1.0749E-001  
  526.00  1.0869E-001  
  526.50  1.0963E-001  
  527.00  1.1044E-001  
  527.50  1.1106E-001  
  528.00  1.1185E-001  
  528.50  1.1266E-001  
  529.00  1.1345E-001  
  529.50  1.1393E-001  
  530.00  1.1477E-001  
  530.50  1.1561E-001  
  531.00  1.1666E-001  
  531.50  1.1764E-001  
  532.00  1.1854E-001  
  532.50  1.1925E-001  
  533.00  1.1977E-001  
  533.50  1.2046E-001  
  534.00  1.2138E-001  
  534.50  1.2273E-001  
  535.00  1.2385E-001  
  535.50  1.2480E-001  
  536.00  1.2565E-001  
  536.50  1.2691E-001  
  537.00  1.2827E-001  
  537.50  1.2939E-001  
  538.00  1.2995E-001  
  538.50  1.3052E-001  
  539.00  1.3139E-001  
  539.50  1.3248E-001  
  540.00  1.3370E-001  
  540.50  1.3471E-001  
  541.00  1.3589E-001  
  541.50  1.3706E-001  
  542.00  1.3823E-001  
  542.50  1.3890E-001  
  543.00  1.3986E-001  
  543.50  1.4085E-001  
  544.00  1.4209E-001  
  544.50  1.4314E-001  
  545.00  1.4387E-001  
  545.50  1.4475E-001  
  546.00  1.4586E-001  
  546.50  1.4674E-001  
  547.00  1.4763E-001  
  547.50  1.4839E-001  
  548.00  1.4955E-001  
  548.50  1.5126E-001  
  549.00  1.5295E-001  
  549.50  1.5413E-001  
  550.00  1.5470E-001  
  550.50  1.5549E-001  
  551.00  1.5657E-001  
  551.50  1.5767E-001  
  552.00  1.5861E-001  
  552.50  1.5952E-001  
  553.00  1.6062E-001  
  553.50  1.6210E-001  
  554.00  1.6355E-001  
  554.50  1.6478E-001  
  555.00  1.6579E-001  
  555.50  1.6640E-001  
  556.00  1.6741E-001  
  556.50  1.6842E-001  
  557.00  1.6957E-001  
  557.50  1.7082E-001  
  558.00  1.7208E-001  
  558.50  1.7342E-001  
  559.00  1.7471E-001  
  559.50  1.7607E-001  
  560.00  1.7751E-001  
  560.50  1.7858E-001  
  561.00  1.7985E-001  
  561.50  1.8097E-001  
  562.00  1.8222E-001  
  562.50  1.8355E-001  
  563.00  1.8474E-001  
  563.50  1.8589E-001  
  564.00  1.8668E-001  
  564.50  1.8764E-001  
  565.00  1.8922E-001  
  565.50  1.9066E-001  
  566.00  1.9157E-001  
  566.50  1.9195E-001  
  567.00  1.9248E-001  
  567.50  1.9330E-001  
  568.00  1.9451E-001  
  568.50  1.9568E-001  
  569.00  1.9709E-001  
  569.50  1.9827E-001  
  570.00  1.9932E-001  
  570.50  2.0048E-001  
  571.00  2.0135E-001  
  571.50  2.0216E-001  
  572.00  2.0297E-001  
  572.50  2.0434E-001  
  573.00  2.0595E-001  
  573.50  2.0760E-001  
  574.00  2.0886E-001  
  574.50  2.1008E-001  
  575.00  2.1105E-001  
  575.50  2.1198E-001  
  576.00  2.1311E-001  
  576.50  2.1418E-001  
  577.00  2.1571E-001  
  577.50  2.1679E-001  
  578.00  2.1794E-001  
  578.50  2.1931E-001  
  579.00  2.2017E-001  
  579.50  2.2114E-001  
  580.00  2.2223E-001  
  580.50  2.2310E-001  
  581.00  2.2441E-001  
  581.50  2.2493E-001  
  582.00  2.2621E-001  
  582.50  2.2722E-001  
  583.00  2.2844E-001  
  583.50  2.2919E-001  
  584.00  2.3015E-001  
  584.50  2.3107E-001  
  585.00  2.3258E-001  
  585.50  2.3396E-001  
  586.00  2.3546E-001  
  586.50  2.3652E-001  
  587.00  2.3762E-001  
  587.50  2.3920E-001  
  588.00  2.4033E-001  
  588.50  2.4155E-001  
  589.00  2.4187E-001  
  589.50  2.4272E-001  
  590.00  2.4360E-001  
  590.50  2.4501E-001  
  591.00  2.4627E-001  
  591.50  2.4795E-001  
  592.00  2.4961E-001  
  592.50  2.5070E-001  
  593.00  2.5171E-001  
  593.50  2.5223E-001  
  594.00  2.5349E-001  
  594.50  2.5500E-001  
  595.00  2.5613E-001  
  595.50  2.5660E-001  
  596.00  2.5748E-001  
  596.50  2.5856E-001  
  597.00  2.6012E-001  
  597.50  2.6080E-001  
  598.00  2.6108E-001  
  598.50  2.6134E-001  
  599.00  2.6226E-001  
  599.50  2.6369E-001  
  600.00  2.6517E-001  
  600.50  2.6625E-001  
  601.00  2.6771E-001  
  601.50  2.6895E-001  
  602.00  2.7056E-001  
  602.50  2.7169E-001  
  603.00  2.7283E-001  
  603.50  2.7386E-001  
  604.00  2.7495E-001  
  604.50  2.7590E-001  
  605.00  2.7680E-001  
  605.50  2.7801E-001  
  606.00  2.7908E-001  
  606.50  2.8040E-001  
  607.00  2.8110E-001  
  607.50  2.8212E-001  
  608.00  2.8298E-001  
  608.50  2.8413E-001  
  609.00  2.8476E-001  
  609.50  2.8578E-001  
  610.00  2.8671E-001  
  610.50  2.8793E-001  
  611.00  2.8940E-001  
  611.50  2.9046E-001  
  612.00  2.9181E-001  
  612.50  2.9217E-001  
  613.00  2.9295E-001  
  613.50  2.9384E-001  
  614.00  2.9521E-001  
  614.50  2.9615E-001  
  615.00  2.9681E-001  
  615.50  2.9767E-001  
  616.00  2.9884E-001  
  616.50  3.0047E-001  
  617.00  3.0210E-001  
  617.50  3.0383E-001  
  618.00  3.0469E-001  
  618.50  3.0482E-001  
  619.00  3.0525E-001  
  619.50  3.0610E-001  
  620.00  3.0741E-001  
  620.50  3.0849E-001  
  621.00  3.0881E-001  
  621.50  3.0893E-001  
  622.00  3.0883E-001  
  622.50  3.0953E-001  
  623.00  3.1085E-001  
  623.50  3.1239E-001  
  624.00  3.1386E-001  
  624.50  3.1490E-001  
  625.00  3.1556E-001  
  625.50  3.1617E-001  
  626.00  3.1665E-001  
  626.50  3.1743E-001  
  627.00  3.1833E-001  
  627.50  3.1951E-001  
  628.00  3.2089E-001  
  628.50  3.2207E-001  
  629.00  3.2278E-001  
  629.50  3.2368E-001  
  630.00  3.2537E-001  
  630.50  3.2669E-001  
  631.00  3.2784E-001  
  631.50  3.2848E-001  
  632.00  3.2901E-001  
  632.50  3.2986E-001  
  633.00  3.3056E-001  
  633.50  3.3182E-001  
  634.00  3.3266E-001  
  634.50  3.3364E-001  
  635.00  3.3426E-001  
  635.50  3.3523E-001  
  636.00  3.3655E-001  
  636.50  3.3833E-001  
  637.00  3.3965E-001  
  637.50  3.4089E-001  
  638.00  3.4178E-001  
  638.50  3.4357E-001  
  639.00  3.4420E-001  
  639.50  3.4514E-001  
  640.00  3.4541E-001  
  640.50  3.4572E-001  
  641.00  3.4691E-001  
  641.50  3.4783E-001  
  642.00  3.4959E-001  
  642.50  3.5040E-001  
  643.00  3.5167E-001  
  643.50  3.5205E-001  
  644.00  3.5255E-001  
  644.50  3.5269E-001  
  645.00  3.5395E-001  
  645.50  3.5496E-001  
  646.00  3.5640E-001  
  646.50  3.5743E-001  
  647.00  3.5885E-001  
  647.50  3.5974E-001  
  648.00  3.6052E-001  
  648.50  3.6121E-001  
  649.00  3.6209E-001  
  649.50  3.6291E-001  
  650.00  3.6412E-001  
  650.50  3.6553E-001  
  651.00  3.6698E-001  
  651.50  3.6773E-001  
  652.00  3.6848E-001  
  652.50  3.6855E-001  
  653.00  3.6914E-001  
  653.50  3.6950E-001  
  654.00  3.7146E-001  
  654.50  3.7259E-001  
  655.00  3.7360E-001  
  655.50  3.7356E-001  
  656.00  3.7393E-001  
  656.50  3.7446E-001  
  657.00  3.7545E-001  
  657.50  3.7692E-001  
  658.00  3.7847E-001  
  658.50  3.7976E-001  
  659.00  3.8074E-001  
  659.50  3.8087E-001  
  660.00  3.8145E-001  
  660.50  3.8196E-001  
  661.00  3.8392E-001  
  661.50  3.8478E-001  
  662.00  3.8538E-001  
  662.50  3.8558E-001  
  663.00  3.8619E-001  
  663.50  3.8742E-001  
  664.00  3.8809E-001  
  664.50  3.8837E-001  
  665.00  3.8863E-001  
  665.50  3.8865E-001  
  666.00  3.8934E-001  
  666.50  3.9042E-001  
  667.00  3.9151E-001  
  667.50  3.9223E-001  
  668.00  3.9257E-001  
  668.50  3.9337E-001  
  669.00  3.9440E-001  
  669.50  3.9544E-001  
  670.00  3.9614E-001  
  670.50  3.9721E-001  
  671.00  3.9820E-001  
  671.50  3.9903E-001  
  672.00  3.9958E-001  
  672.50  4.0023E-001  
  673.00  4.0145E-001  
  673.50  4.0184E-001  
  674.00  4.0162E-001  
  674.50  4.0166E-001  
  675.00  4.0264E-001  
  675.50  4.0343E-001  
  676.00  4.0420E-001  
  676.50  4.0378E-001  
  677.00  4.0431E-001  
  677.50  4.0501E-001  
  678.00  4.0553E-001  
  678.50  4.0560E-001  
  679.00  4.0600E-001  
  679.50  4.0702E-001  
  680.00  4.0801E-001  
  680.50  4.0833E-001  
  681.00  4.0740E-001  
  681.50  4.0689E-001  
  682.00  4.0756E-001  
  682.50  4.1002E-001  
  683.00  4.1153E-001  
  683.50  4.1156E-001  
  684.00  4.1097E-001  
  684.50  4.1122E-001  
  685.00  4.1154E-001  
  685.50  4.1269E-001  
  686.00  4.1306E-001  
  686.50  4.1449E-001  
  687.00  4.1672E-001  
  687.50  4.1874E-001  
  688.00  4.1954E-001  
  688.50  4.1902E-001  
  689.00  4.1849E-001  
  689.50  4.1856E-001  
  690.00  4.1917E-001  
  690.50  4.2035E-001  
  691.00  4.2149E-001  
  691.50  4.2134E-001  
  692.00  4.2257E-001  
  692.50  4.2298E-001  
  693.00  4.2406E-001  
  693.50  4.2470E-001  
  694.00  4.2486E-001  
  694.50  4.2516E-001  
  695.00  4.2512E-001  
  695.50  4.2545E-001  
  696.00  4.2601E-001  
  696.50  4.2689E-001  
  697.00  4.2788E-001  
  697.50  4.2849E-001  
  698.00  4.2945E-001  
  698.50  4.2998E-001  
  699.00  4.3047E-001  
  699.50  4.2985E-001  
  700.00  4.3084E-001  
  700.50  4.3164E-001  
  701.00  4.3290E-001  
  701.50  4.3392E-001  
  702.00  4.3450E-001  
  702.50  4.3565E-001  
  703.00  4.3616E-001  
  703.50  4.3796E-001  
  704.00  4.3918E-001  
  704.50  4.4036E-001  
  705.00  4.4108E-001  
  705.50  4.4166E-001  
  706.00  4.4141E-001  
  706.50  4.4061E-001  
  707.00  4.4119E-001  
  707.50  4.4333E-001  
  708.00  4.4563E-001  
  708.50  4.4618E-001  
  709.00  4.4567E-001  
  709.50  4.4607E-001  
  710.00  4.4775E-001  
  710.50  4.4933E-001  
  711.00  4.4910E-001  
  711.50  4.4839E-001  
  712.00  4.4831E-001  
  712.50  4.4905E-001  
  713.00  4.4975E-001  
  713.50  4.5017E-001  
  714.00  4.5049E-001  
  714.50  4.5086E-001  
  715.00  4.5220E-001  
  715.50  4.5252E-001  
  716.00  4.5279E-001  
  716.50  4.5280E-001  
  717.00  4.5438E-001  
  717.50  4.5594E-001  
  718.00  4.5684E-001  
  718.50  4.5604E-001  
  719.00  4.5518E-001  
  719.50  4.5569E-001  
  720.00  4.5808E-001  
  720.50  4.5961E-001  
  721.00  4.5969E-001  
  721.50  4.5872E-001  
  722.00  4.5870E-001  
  722.50  4.6040E-001  
  723.00  4.6209E-001  
  723.50  4.6331E-001  
  724.00  4.6354E-001  
  724.50  4.6320E-001  
  725.00  4.6401E-001  
  725.50  4.6505E-001  
  726.00  4.6557E-001  
  726.50  4.6568E-001  
  727.00  4.6614E-001  
  727.50  4.6755E-001  
  728.00  4.6781E-001  
  728.50  4.6918E-001  
  729.00  4.7067E-001  
  729.50  4.7164E-001  
  730.00  4.7196E-001  
  730.50  4.7237E-001  
  731.00  4.7319E-001  
  731.50  4.7460E-001  
  732.00  4.7602E-001  
  732.50  4.7755E-001  
  733.00  4.7774E-001  
  733.50  4.7787E-001  
  734.00  4.7827E-001  
  734.50  4.8013E-001  
  735.00  4.8129E-001  
  735.50  4.8084E-001  
  736.00  4.8067E-001  
  736.50  4.8186E-001  
  737.00  4.8251E-001  
  737.50  4.8281E-001  
  738.00  4.8206E-001  
  738.50  4.8298E-001  
  739.00  4.8417E-001  
  739.50  4.8610E-001  
  740.00  4.8694E-001  
  740.50  4.8656E-001  
  741.00  4.8633E-001  
  741.50  4.8659E-001  
  742.00  4.8729E-001  
  742.50  4.8703E-001  
  743.00  4.8706E-001  
  743.50  4.8845E-001  
  744.00  4.9061E-001  
  744.50  4.9212E-001  
  745.00  4.9363E-001  
  745.50  4.9363E-001  
  746.00  4.9275E-001  
  746.50  4.9335E-001  
  747.00  4.9494E-001  
  747.50  4.9584E-001  
  748.00  4.9526E-001  
  748.50  4.9549E-001  
  749.00  4.9593E-001  
  749.50  4.9824E-001  
  750.00  5.0042E-001  
  750.50  5.0228E-001  
  751.00  5.0376E-001  
  751.50  5.0322E-001  
  752.00  5.0304E-001  
  752.50  5.0385E-001  
  753.00  5.0535E-001  
  753.50  5.0471E-001  
  754.00  5.0523E-001  
  754.50  5.0696E-001  
  755.00  5.0838E-001  
  755.50  5.0804E-001  
  756.00  5.0766E-001  
  756.50  5.0859E-001  
  757.00  5.1022E-001  
  757.50  5.1116E-001  
  758.00  5.1233E-001  
  758.50  5.1345E-001  
  759.00  5.1592E-001  
  759.50  5.1588E-001  
  760.00  5.1382E-001  
  760.50  5.1261E-001  
  761.00  5.1455E-001  
  761.50  5.1663E-001  
  762.00  5.1739E-001  
  762.50  5.1633E-001  
  763.00  5.1614E-001  
  763.50  5.1659E-001  
  764.00  5.1849E-001  
  764.50  5.2020E-001  
  765.00  5.2154E-001  
  765.50  5.2248E-001  
  766.00  5.2398E-001  
  766.50  5.2588E-001  
  767.00  5.2835E-001  
  767.50  5.2925E-001  
  768.00  5.2884E-001  
  768.50  5.2782E-001  
  769.00  5.2880E-001  
  769.50  5.2922E-001  
  770.00  5.2918E-001  
  770.50  5.2807E-001  
  771.00  5.2826E-001  
  771.50  5.2841E-001  
  772.00  5.3001E-001  
  772.50  5.3183E-001  
  773.00  5.3321E-001  
  773.50  5.3449E-001  
  774.00  5.3594E-001  
  774.50  5.3642E-001  
  775.00  5.3548E-001  
  775.50  5.3580E-001  
  776.00  5.3525E-001  
  776.50  5.3452E-001  
  777.00  5.3486E-001  
  777.50  5.3854E-001  
  778.00  5.4071E-001  
  778.50  5.3914E-001  
  779.00  5.3695E-001  
  779.50  5.3675E-001  
  780.00  5.3887E-001  
  780.50  5.4200E-001  
  781.00  5.4358E-001  
  781.50  5.4359E-001  
  782.00  5.4250E-001  
  782.50  5.4335E-001  
  783.00  5.4603E-001  
  783.50  5.4870E-001  
  784.00  5.4888E-001  
  784.50  5.4809E-001  
  785.00  5.4752E-001  
  785.50  5.4904E-001  
  786.00  5.5056E-001  
  786.50  5.5080E-001  
  787.00  5.5132E-001  
  787.50  5.5296E-001  
  788.00  5.5483E-001  
  788.50  5.5502E-001  
  789.00  5.5606E-001  
  789.50  5.5733E-001  
  790.00  5.5765E-001  
  790.50  5.5646E-001  
  791.00  5.5654E-001  
  791.50  5.5881E-001  
  792.00  5.6082E-001  
  792.50  5.6247E-001  
  793.00  5.6189E-001  
  793.50  5.6127E-001  
  794.00  5.6084E-001  
  794.50  5.6099E-001  
  795.00  5.6290E-001  
  795.50  5.6512E-001  
  796.00  5.6705E-001  
  796.50  5.6858E-001  
  797.00  5.7071E-001  
  797.50  5.7268E-001  
  798.00  5.7079E-001  
  798.50  5.7069E-001  
  799.00  5.7129E-001  
  799.50  5.7365E-001  
  800.00  5.7432E-001  
  800.50  5.7511E-001  
  801.00  5.7416E-001  
  801.50  5.7397E-001  
  802.00  5.7431E-001  
  802.50  5.7511E-001  
  803.00  5.7605E-001  
  803.50  5.7652E-001  
  804.00  5.7516E-001  
  804.50  5.7357E-001  
  805.00  5.7540E-001  
  805.50  5.7923E-001  
  806.00  5.8518E-001  
  806.50  5.8555E-001  
  807.00  5.8162E-001  
  807.50  5.7947E-001  
  808.00  5.8226E-001  
  808.50  5.8494E-001  
  809.00  5.8637E-001  
  809.50  5.8882E-001  
  810.00  5.9108E-001  
  810.50  5.9011E-001  
  811.00  5.8876E-001  
  811.50  5.8994E-001  
  812.00  5.9269E-001  
  812.50  5.9414E-001  
  813.00  5.9253E-001  
  813.50  5.8989E-001  
  814.00  5.8900E-001  
  814.50  5.9111E-001  
  815.00  5.9405E-001  
  815.50  5.9688E-001  
  816.00  5.9648E-001  
  816.50  5.9596E-001  
  817.00  5.9721E-001  
  817.50  5.9614E-001  
  818.00  5.9902E-001  
  818.50  6.0171E-001  
  819.00  6.0154E-001  
  819.50  6.0031E-001  
  820.00  6.0205E-001  
  820.50  6.0508E-001  
  821.00  6.0623E-001  
  821.50  6.0580E-001  
  822.00  6.0474E-001  
  822.50  6.0350E-001  
  823.00  6.0201E-001  
  823.50  6.0231E-001  
  824.00  6.0303E-001  
  824.50  6.0519E-001  
  825.00  6.0880E-001  
  825.50  6.1332E-001  
  826.00  6.1521E-001  
  826.50  6.1477E-001  
  827.00  6.1492E-001  
  827.50  6.1587E-001  
  828.00  6.1361E-001  
  828.50  6.1142E-001  
  829.00  6.1153E-001  
  829.50  6.1262E-001  
  830.00  6.1427E-001  
  830.50  6.1664E-001  
  831.00  6.1873E-001  
  831.50  6.1811E-001  
  832.00  6.1748E-001  
  832.50  6.1872E-001  
  833.00  6.1937E-001  
  833.50  6.2154E-001  
  834.00  6.2055E-001  
  834.50  6.1859E-001  
  835.00  6.1881E-001  
  835.50  6.2333E-001  
  836.00  6.2335E-001  
  836.50  6.2193E-001  
  837.00  6.2622E-001  
  837.50  6.3157E-001  
  838.00  6.3287E-001  
  838.50  6.2740E-001  
  839.00  6.2608E-001  
  839.50  6.2884E-001  
  840.00  6.3007E-001  
  840.50  6.2971E-001  
  841.00  6.3384E-001  
  841.50  6.3401E-001  
  842.00  6.3085E-001  
  842.50  6.3034E-001  
  843.00  6.3181E-001  
  843.50  6.3910E-001  
  844.00  6.4122E-001  
  844.50  6.3928E-001  
  845.00  6.3903E-001  
  845.50  6.3638E-001  
  846.00  6.3445E-001  
  846.50  6.3685E-001  
  847.00  6.4194E-001  
  847.50  6.4432E-001  
  848.00  6.4289E-001  
  848.50  6.4172E-001  
  849.00  6.4117E-001  
  849.50  6.4133E-001  
  850.00  6.4182E-001  
  850.50  6.3859E-001  
  851.00  6.4043E-001  
  851.50  6.4136E-001  
  852.00  6.4566E-001  
  852.50  6.4650E-001  
  853.00  6.4701E-001  
  853.50  6.4454E-001  
  854.00  6.4424E-001  
  854.50  6.4692E-001  
  855.00  6.5097E-001  
  855.50  6.5439E-001  
  856.00  6.5424E-001  
  856.50  6.5556E-001  
  857.00  6.5810E-001  
  857.50  6.5713E-001  
  858.00  6.5291E-001  
  858.50  6.5551E-001  
  859.00  6.5969E-001  
  859.50  6.5615E-001  
  860.00  6.5380E-001  
  860.50  6.5909E-001  
  861.00  6.6367E-001  
  861.50  6.6055E-001  
  862.00  6.5985E-001  
  862.50  6.6413E-001  
  863.00  6.6143E-001  
  863.50  6.5758E-001  
  864.00  6.6075E-001  
  864.50  6.6074E-001  
  865.00  6.5867E-001  
  865.50  6.6137E-001  
  866.00  6.6531E-001  
  866.50  6.6333E-001  
  867.00  6.6056E-001  
  867.50  6.6510E-001  
  868.00  6.7219E-001  
  868.50  6.7520E-001  
  869.00  6.7443E-001  
  869.50  6.6854E-001  
  870.00  6.6428E-001  
  870.50  6.6249E-001  
  871.00  6.6047E-001  
  871.50  6.6877E-001  
  872.00  6.7233E-001  
  872.50  6.7175E-001  
  873.00  6.6940E-001  
  873.50  6.6827E-001  
  874.00  6.7011E-001  
  874.50  6.7338E-001  
  875.00  6.7445E-001  
  875.50  6.7186E-001  
  876.00  6.6847E-001  
  876.50  6.6786E-001  
  877.00  6.7150E-001  
  877.50  6.7390E-001  
  878.00  6.6936E-001  
  878.50  6.6703E-001  
  879.00  6.7387E-001  
  879.50  6.8241E-001  
  880.00  6.7991E-001  
  880.50  6.7932E-001  
  881.00  6.7964E-001  
  881.50  6.7497E-001  
  882.00  6.7285E-001  
  882.50  6.7546E-001  
  883.00  6.7970E-001  
  883.50  6.8348E-001  
  884.00  6.8274E-001  
  884.50  6.8427E-001  
  885.00  6.8660E-001  
  885.50  6.8515E-001  
  886.00  6.7846E-001  
  886.50  6.7137E-001  
  887.00  6.7473E-001  
  887.50  6.8111E-001  
  888.00  6.8308E-001  
  888.50  6.8346E-001  
  889.00  6.8078E-001  
  889.50  6.8345E-001  
  890.00  6.8645E-001  
  890.50  6.8631E-001  
  891.00  6.8257E-001  
  891.50  6.7997E-001  
  892.00  6.8189E-001  
  892.50  6.8903E-001  
  893.00  6.9253E-001  
  893.50  6.9207E-001  
  894.00  6.8985E-001  
  894.50  6.8309E-001  
  895.00  6.8630E-001  
  895.50  6.9338E-001  
  896.00  6.9563E-001  
  896.50  6.8996E-001  
  897.00  6.8197E-001  
  897.50  6.8247E-001  
  898.00  6.9105E-001  
  898.50  6.9844E-001  
  899.00  6.9873E-001  
  899.50  1.3848E-002  
