
# From lspdd.org
# 
# Name: INC Rona PAR38 Domestique
# Indice spectral Valeur 
# MSI 0.09 
# SLI 0.28 
# IPI 1.06 
# Pourcentage de bleu 2.9 
# Caractéristique Valeur 
# CCT calculée (K) 1920 
# CCT du fabricant (K) ND 
# Tension (V) 130 
# Puissance (W) 100.0 
# Efficacité lumineuse (Lum/W) ND 
#
# Image: '/app/system/img_2s/2731/medium_image2.jpg?1612236463'
# Image: '/app/system/img_1s/2731/medium_image1.jpg?1612236461'
# 

  273.00  0.0000E+000  
  273.50  0.0000E+000  
  274.00  0.0000E+000  
  274.50  0.0000E+000  
  275.00  0.0000E+000  
  275.50  0.0000E+000  
  276.00  0.0000E+000  
  276.50  0.0000E+000  
  277.00  0.0000E+000  
  277.50  0.0000E+000  
  278.00  0.0000E+000  
  278.50  0.0000E+000  
  279.00  0.0000E+000  
  279.50  0.0000E+000  
  280.00  0.0000E+000  
  280.50  0.0000E+000  
  281.00  0.0000E+000  
  281.50  0.0000E+000  
  282.00  0.0000E+000  
  282.50  0.0000E+000  
  283.00  0.0000E+000  
  283.50  0.0000E+000  
  284.00  0.0000E+000  
  284.50  0.0000E+000  
  285.00  0.0000E+000  
  285.50  0.0000E+000  
  286.00  0.0000E+000  
  286.50  0.0000E+000  
  287.00  0.0000E+000  
  287.50  0.0000E+000  
  288.00  0.0000E+000  
  288.50  0.0000E+000  
  289.00  0.0000E+000  
  289.50  0.0000E+000  
  290.00  0.0000E+000  
  290.50  0.0000E+000  
  291.00  0.0000E+000  
  291.50  0.0000E+000  
  292.00  0.0000E+000  
  292.50  0.0000E+000  
  293.00  0.0000E+000  
  293.50  0.0000E+000  
  294.00  0.0000E+000  
  294.50  0.0000E+000  
  295.00  0.0000E+000  
  295.50  0.0000E+000  
  296.00  0.0000E+000  
  296.50  0.0000E+000  
  297.00  0.0000E+000  
  297.50  0.0000E+000  
  298.00  0.0000E+000  
  298.50  0.0000E+000  
  299.00  0.0000E+000  
  299.50  0.0000E+000  
  300.00  3.8183E-005  
  300.50  1.2237E-004  
  301.00  1.7470E-004  
  301.50  1.5110E-004  
  302.00  1.9144E-004  
  302.50  2.2829E-004  
  303.00  2.8630E-004  
  303.50  5.2607E-004  
  304.00  7.6487E-004  
  304.50  1.0267E-003  
  305.00  1.2193E-003  
  305.50  1.3081E-003  
  306.00  1.0446E-003  
  306.50  9.5547E-004  
  307.00  1.0497E-003  
  307.50  1.3747E-003  
  308.00  1.4686E-003  
  308.50  1.5107E-003  
  309.00  1.4459E-003  
  309.50  1.3592E-003  
  310.00  1.3219E-003  
  310.50  1.2944E-003  
  311.00  9.7169E-004  
  311.50  6.4071E-004  
  312.00  7.3214E-004  
  312.50  8.1940E-004  
  313.00  1.2528E-003  
  313.50  1.1933E-003  
  314.00  1.0133E-003  
  314.50  8.7978E-004  
  315.00  7.8948E-004  
  315.50  7.5722E-004  
  316.00  3.9558E-004  
  316.50  1.1772E-004  
  317.00  1.3678E-004  
  317.50  4.2522E-004  
  318.00  1.0182E-003  
  318.50  1.2486E-003  
  319.00  1.1538E-003  
  319.50  8.5344E-004  
  320.00  4.8261E-004  
  320.50  7.3437E-004  
  321.00  8.4757E-004  
  321.50  1.0270E-003  
  322.00  1.0487E-003  
  322.50  5.1648E-004  
  323.00  4.8656E-004  
  323.50  7.1818E-004  
  324.00  7.4536E-004  
  324.50  1.1236E-003  
  325.00  1.4318E-003  
  325.50  1.5718E-003  
  326.00  1.5679E-003  
  326.50  1.2754E-003  
  327.00  1.0754E-003  
  327.50  8.4600E-004  
  328.00  7.5325E-004  
  328.50  7.0805E-004  
  329.00  4.8162E-004  
  329.50  6.4700E-004  
  330.00  9.1889E-004  
  330.50  1.1823E-003  
  331.00  1.2884E-003  
  331.50  1.0772E-003  
  332.00  9.6529E-004  
  332.50  9.9659E-004  
  333.00  1.0499E-003  
  333.50  1.3067E-003  
  334.00  1.6320E-003  
  334.50  1.6393E-003  
  335.00  1.5316E-003  
  335.50  1.5494E-003  
  336.00  1.2807E-003  
  336.50  1.1189E-003  
  337.00  1.0485E-003  
  337.50  1.0065E-003  
  338.00  1.0438E-003  
  338.50  1.2427E-003  
  339.00  1.2009E-003  
  339.50  7.6632E-004  
  340.00  4.4915E-004  
  340.50  2.4655E-004  
  341.00  3.6341E-004  
  341.50  6.0276E-004  
  342.00  6.2564E-004  
  342.50  3.9975E-004  
  343.00  1.0262E-004  
  343.50  8.1561E-007  
  344.00  0.0000E+000  
  344.50  6.6564E-005  
  345.00  3.5921E-004  
  345.50  5.9717E-004  
  346.00  7.0772E-004  
  346.50  6.6371E-004  
  347.00  6.2952E-004  
  347.50  5.6308E-004  
  348.00  6.7217E-004  
  348.50  6.5888E-004  
  349.00  4.7928E-004  
  349.50  5.2607E-004  
  350.00  5.4700E-004  
  350.50  6.8340E-004  
  351.00  9.4513E-004  
  351.50  1.1432E-003  
  352.00  1.2885E-003  
  352.50  1.1677E-003  
  353.00  1.0177E-003  
  353.50  7.1244E-004  
  354.00  4.9569E-004  
  354.50  5.7873E-004  
  355.00  7.0651E-004  
  355.50  7.6882E-004  
  356.00  6.4958E-004  
  356.50  5.9330E-004  
  357.00  6.3847E-004  
  357.50  8.6129E-004  
  358.00  1.1450E-003  
  358.50  1.2768E-003  
  359.00  1.2282E-003  
  359.50  8.0316E-004  
  360.00  4.8978E-004  
  360.50  1.0680E-004  
  361.00  1.9507E-004  
  361.50  1.9549E-004  
  362.00  1.4651E-004  
  362.50  2.2894E-004  
  363.00  6.4912E-004  
  363.50  1.0610E-003  
  364.00  1.2468E-003  
  364.50  1.1425E-003  
  365.00  8.9135E-004  
  365.50  9.5471E-004  
  366.00  8.7846E-004  
  366.50  7.6475E-004  
  367.00  6.3622E-004  
  367.50  4.6581E-004  
  368.00  5.3789E-004  
  368.50  6.0929E-004  
  369.00  9.2350E-004  
  369.50  1.0252E-003  
  370.00  1.3420E-003  
  370.50  1.3833E-003  
  371.00  1.2334E-003  
  371.50  1.0126E-003  
  372.00  9.0596E-004  
  372.50  9.0359E-004  
  373.00  9.9314E-004  
  373.50  9.6962E-004  
  374.00  5.9073E-004  
  374.50  2.1938E-004  
  375.00  2.0165E-006  
  375.50  2.1524E-004  
  376.00  7.4495E-004  
  376.50  1.3018E-003  
  377.00  1.4640E-003  
  377.50  1.5090E-003  
  378.00  1.3518E-003  
  378.50  1.0832E-003  
  379.00  8.5523E-004  
  379.50  5.6811E-004  
  380.00  5.6862E-004  
  380.50  5.9274E-004  
  381.00  7.5366E-004  
  381.50  7.7249E-004  
  382.00  7.0396E-004  
  382.50  5.2410E-004  
  383.00  4.4308E-004  
  383.50  5.8906E-004  
  384.00  9.4196E-004  
  384.50  1.1165E-003  
  385.00  1.0378E-003  
  385.50  1.0215E-003  
  386.00  1.1472E-003  
  386.50  1.2353E-003  
  387.00  1.1284E-003  
  387.50  8.9346E-004  
  388.00  7.6622E-004  
  388.50  7.8431E-004  
  389.00  8.9330E-004  
  389.50  6.7685E-004  
  390.00  4.5799E-004  
  390.50  4.0028E-004  
  391.00  3.5118E-004  
  391.50  4.7017E-004  
  392.00  7.9572E-004  
  392.50  1.0766E-003  
  393.00  1.4723E-003  
  393.50  1.7685E-003  
  394.00  1.7167E-003  
  394.50  1.6114E-003  
  395.00  1.3937E-003  
  395.50  9.6881E-004  
  396.00  8.1218E-004  
  396.50  6.6358E-004  
  397.00  8.8174E-004  
  397.50  1.1616E-003  
  398.00  9.7359E-004  
  398.50  9.3706E-004  
  399.00  8.7308E-004  
  399.50  1.1658E-003  
  400.00  1.2350E-003  
  400.50  9.4726E-004  
  401.00  6.1321E-004  
  401.50  4.8948E-004  
  402.00  5.7008E-004  
  402.50  6.9472E-004  
  403.00  8.2958E-004  
  403.50  8.1039E-004  
  404.00  7.7932E-004  
  404.50  6.9968E-004  
  405.00  6.7662E-004  
  405.50  7.8762E-004  
  406.00  9.0162E-004  
  406.50  9.0021E-004  
  407.00  8.2144E-004  
  407.50  9.4614E-004  
  408.00  1.0028E-003  
  408.50  1.1171E-003  
  409.00  1.1183E-003  
  409.50  1.0588E-003  
  410.00  1.0912E-003  
  410.50  1.0842E-003  
  411.00  9.0701E-004  
  411.50  7.1609E-004  
  412.00  4.3811E-004  
  412.50  3.2200E-004  
  413.00  2.9608E-004  
  413.50  5.2482E-004  
  414.00  7.4081E-004  
  414.50  8.7427E-004  
  415.00  1.0059E-003  
  415.50  1.0465E-003  
  416.00  9.8493E-004  
  416.50  9.1886E-004  
  417.00  1.0166E-003  
  417.50  1.1961E-003  
  418.00  1.3132E-003  
  418.50  1.4793E-003  
  419.00  1.3139E-003  
  419.50  1.2451E-003  
  420.00  1.1001E-003  
  420.50  1.0214E-003  
  421.00  1.0916E-003  
  421.50  1.1482E-003  
  422.00  1.3803E-003  
  422.50  1.4520E-003  
  423.00  1.3370E-003  
  423.50  1.1044E-003  
  424.00  1.0199E-003  
  424.50  1.1061E-003  
  425.00  1.5093E-003  
  425.50  1.8230E-003  
  426.00  1.8228E-003  
  426.50  1.4512E-003  
  427.00  1.0600E-003  
  427.50  6.9528E-004  
  428.00  6.1626E-004  
  428.50  8.3980E-004  
  429.00  1.0258E-003  
  429.50  1.0952E-003  
  430.00  1.2304E-003  
  430.50  1.0903E-003  
  431.00  1.2349E-003  
  431.50  1.0491E-003  
  432.00  1.0900E-003  
  432.50  1.1782E-003  
  433.00  1.1506E-003  
  433.50  1.4052E-003  
  434.00  1.3597E-003  
  434.50  1.1658E-003  
  435.00  8.5456E-004  
  435.50  7.4690E-004  
  436.00  9.0834E-004  
  436.50  1.2777E-003  
  437.00  1.5309E-003  
  437.50  1.6161E-003  
  438.00  1.4850E-003  
  438.50  1.2632E-003  
  439.00  9.9483E-004  
  439.50  1.0995E-003  
  440.00  1.3650E-003  
  440.50  1.7028E-003  
  441.00  1.6182E-003  
  441.50  1.5454E-003  
  442.00  1.3156E-003  
  442.50  1.3084E-003  
  443.00  1.1907E-003  
  443.50  1.1270E-003  
  444.00  8.4896E-004  
  444.50  1.0294E-003  
  445.00  1.4033E-003  
  445.50  1.6532E-003  
  446.00  1.7134E-003  
  446.50  1.4307E-003  
  447.00  1.3625E-003  
  447.50  1.5003E-003  
  448.00  1.7547E-003  
  448.50  1.8358E-003  
  449.00  1.6121E-003  
  449.50  1.4829E-003  
  450.00  1.2516E-003  
  450.50  1.0567E-003  
  451.00  1.0119E-003  
  451.50  1.0768E-003  
  452.00  1.2615E-003  
  452.50  1.5672E-003  
  453.00  1.6013E-003  
  453.50  1.6594E-003  
  454.00  1.6095E-003  
  454.50  1.6838E-003  
  455.00  1.8198E-003  
  455.50  1.8893E-003  
  456.00  1.7800E-003  
  456.50  1.6325E-003  
  457.00  1.4663E-003  
  457.50  1.3836E-003  
  458.00  1.3953E-003  
  458.50  1.5703E-003  
  459.00  1.6700E-003  
  459.50  1.7592E-003  
  460.00  1.7236E-003  
  460.50  1.6849E-003  
  461.00  1.8058E-003  
  461.50  1.8452E-003  
  462.00  2.0102E-003  
  462.50  2.2774E-003  
  463.00  2.6493E-003  
  463.50  2.8696E-003  
  464.00  2.8065E-003  
  464.50  2.5611E-003  
  465.00  2.3213E-003  
  465.50  2.4143E-003  
  466.00  2.6008E-003  
  466.50  2.8069E-003  
  467.00  2.8805E-003  
  467.50  2.9264E-003  
  468.00  2.9097E-003  
  468.50  2.9965E-003  
  469.00  2.8896E-003  
  469.50  2.8651E-003  
  470.00  2.9282E-003  
  470.50  3.0632E-003  
  471.00  3.1944E-003  
  471.50  3.2105E-003  
  472.00  3.2718E-003  
  472.50  3.2358E-003  
  473.00  3.3240E-003  
  473.50  3.4065E-003  
  474.00  3.6015E-003  
  474.50  3.8434E-003  
  475.00  4.0825E-003  
  475.50  4.4166E-003  
  476.00  4.5807E-003  
  476.50  4.6411E-003  
  477.00  4.4223E-003  
  477.50  4.3218E-003  
  478.00  4.3667E-003  
  478.50  4.5090E-003  
  479.00  4.6924E-003  
  479.50  4.6740E-003  
  480.00  4.9665E-003  
  480.50  5.2320E-003  
  481.00  5.5403E-003  
  481.50  5.7482E-003  
  482.00  5.8753E-003  
  482.50  6.0926E-003  
  483.00  6.2710E-003  
  483.50  6.3741E-003  
  484.00  6.3582E-003  
  484.50  6.3253E-003  
  485.00  6.4621E-003  
  485.50  6.6848E-003  
  486.00  6.8579E-003  
  486.50  7.0719E-003  
  487.00  7.2783E-003  
  487.50  7.6105E-003  
  488.00  7.8638E-003  
  488.50  8.0201E-003  
  489.00  8.2069E-003  
  489.50  8.4032E-003  
  490.00  8.8288E-003  
  490.50  9.2583E-003  
  491.00  9.6718E-003  
  491.50  9.9604E-003  
  492.00  1.0146E-002  
  492.50  1.0398E-002  
  493.00  1.0645E-002  
  493.50  1.0886E-002  
  494.00  1.1171E-002  
  494.50  1.1590E-002  
  495.00  1.2131E-002  
  495.50  1.2699E-002  
  496.00  1.3235E-002  
  496.50  1.3668E-002  
  497.00  1.4197E-002  
  497.50  1.4407E-002  
  498.00  1.4755E-002  
  498.50  1.5139E-002  
  499.00  1.5589E-002  
  499.50  1.6163E-002  
  500.00  1.6597E-002  
  500.50  1.7003E-002  
  501.00  1.7365E-002  
  501.50  1.7909E-002  
  502.00  1.8591E-002  
  502.50  1.9329E-002  
  503.00  2.0016E-002  
  503.50  2.0611E-002  
  504.00  2.1192E-002  
  504.50  2.1726E-002  
  505.00  2.2444E-002  
  505.50  2.3169E-002  
  506.00  2.3839E-002  
  506.50  2.4523E-002  
  507.00  2.5116E-002  
  507.50  2.5732E-002  
  508.00  2.6314E-002  
  508.50  2.6965E-002  
  509.00  2.7625E-002  
  509.50  2.8229E-002  
  510.00  2.8910E-002  
  510.50  2.9546E-002  
  511.00  3.0502E-002  
  511.50  3.1264E-002  
  512.00  3.1915E-002  
  512.50  3.2336E-002  
  513.00  3.2862E-002  
  513.50  3.3562E-002  
  514.00  3.4393E-002  
  514.50  3.5359E-002  
  515.00  3.6217E-002  
  515.50  3.7237E-002  
  516.00  3.8129E-002  
  516.50  3.9075E-002  
  517.00  3.9914E-002  
  517.50  4.0696E-002  
  518.00  4.1474E-002  
  518.50  4.2302E-002  
  519.00  4.3117E-002  
  519.50  4.4030E-002  
  520.00  4.4953E-002  
  520.50  4.5938E-002  
  521.00  4.6891E-002  
  521.50  4.7632E-002  
  522.00  4.8379E-002  
  522.50  4.8931E-002  
  523.00  4.9771E-002  
  523.50  5.0761E-002  
  524.00  5.1832E-002  
  524.50  5.2829E-002  
  525.00  5.3504E-002  
  525.50  5.4363E-002  
  526.00  5.5401E-002  
  526.50  5.6719E-002  
  527.00  5.7726E-002  
  527.50  5.8583E-002  
  528.00  5.9247E-002  
  528.50  6.0254E-002  
  529.00  6.1287E-002  
  529.50  6.2315E-002  
  530.00  6.3319E-002  
  530.50  6.4371E-002  
  531.00  6.5402E-002  
  531.50  6.6372E-002  
  532.00  6.7303E-002  
  532.50  6.8300E-002  
  533.00  6.9283E-002  
  533.50  7.0185E-002  
  534.00  7.0983E-002  
  534.50  7.1905E-002  
  535.00  7.2914E-002  
  535.50  7.3927E-002  
  536.00  7.4929E-002  
  536.50  7.6001E-002  
  537.00  7.7241E-002  
  537.50  7.8427E-002  
  538.00  7.9625E-002  
  538.50  8.0426E-002  
  539.00  8.1166E-002  
  539.50  8.1893E-002  
  540.00  8.2661E-002  
  540.50  8.3763E-002  
  541.00  8.5008E-002  
  541.50  8.6417E-002  
  542.00  8.7464E-002  
  542.50  8.8251E-002  
  543.00  8.9234E-002  
  543.50  9.0330E-002  
  544.00  9.1536E-002  
  544.50  9.2715E-002  
  545.00  9.3831E-002  
  545.50  9.5057E-002  
  546.00  9.6018E-002  
  546.50  9.6827E-002  
  547.00  9.7625E-002  
  547.50  9.8707E-002  
  548.00  9.9656E-002  
  548.50  1.0081E-001  
  549.00  1.0198E-001  
  549.50  1.0334E-001  
  550.00  1.0464E-001  
  550.50  1.0578E-001  
  551.00  1.0690E-001  
  551.50  1.0788E-001  
  552.00  1.0905E-001  
  552.50  1.0975E-001  
  553.00  1.1065E-001  
  553.50  1.1159E-001  
  554.00  1.1281E-001  
  554.50  1.1384E-001  
  555.00  1.1470E-001  
  555.50  1.1529E-001  
  556.00  1.1632E-001  
  556.50  1.1765E-001  
  557.00  1.1887E-001  
  557.50  1.1995E-001  
  558.00  1.2096E-001  
  558.50  1.2211E-001  
  559.00  1.2335E-001  
  559.50  1.2425E-001  
  560.00  1.2547E-001  
  560.50  1.2647E-001  
  561.00  1.2791E-001  
  561.50  1.2916E-001  
  562.00  1.3030E-001  
  562.50  1.3150E-001  
  563.00  1.3229E-001  
  563.50  1.3302E-001  
  564.00  1.3374E-001  
  564.50  1.3466E-001  
  565.00  1.3605E-001  
  565.50  1.3746E-001  
  566.00  1.3849E-001  
  566.50  1.3928E-001  
  567.00  1.3983E-001  
  567.50  1.4067E-001  
  568.00  1.4179E-001  
  568.50  1.4293E-001  
  569.00  1.4396E-001  
  569.50  1.4490E-001  
  570.00  1.4578E-001  
  570.50  1.4692E-001  
  571.00  1.4786E-001  
  571.50  1.4867E-001  
  572.00  1.4956E-001  
  572.50  1.5066E-001  
  573.00  1.5192E-001  
  573.50  1.5275E-001  
  574.00  1.5336E-001  
  574.50  1.5413E-001  
  575.00  1.5535E-001  
  575.50  1.5685E-001  
  576.00  1.5843E-001  
  576.50  1.5950E-001  
  577.00  1.6072E-001  
  577.50  1.6130E-001  
  578.00  1.6212E-001  
  578.50  1.6316E-001  
  579.00  1.6418E-001  
  579.50  1.6536E-001  
  580.00  1.6620E-001  
  580.50  1.6692E-001  
  581.00  1.6781E-001  
  581.50  1.6883E-001  
  582.00  1.6997E-001  
  582.50  1.7077E-001  
  583.00  1.7147E-001  
  583.50  1.7222E-001  
  584.00  1.7327E-001  
  584.50  1.7434E-001  
  585.00  1.7526E-001  
  585.50  1.7627E-001  
  586.00  1.7721E-001  
  586.50  1.7788E-001  
  587.00  1.7848E-001  
  587.50  1.7938E-001  
  588.00  1.8064E-001  
  588.50  1.8223E-001  
  589.00  1.8316E-001  
  589.50  1.8417E-001  
  590.00  1.8474E-001  
  590.50  1.8579E-001  
  591.00  1.8715E-001  
  591.50  1.8881E-001  
  592.00  1.9026E-001  
  592.50  1.9073E-001  
  593.00  1.9123E-001  
  593.50  1.9190E-001  
  594.00  1.9275E-001  
  594.50  1.9368E-001  
  595.00  1.9463E-001  
  595.50  1.9580E-001  
  596.00  1.9676E-001  
  596.50  1.9748E-001  
  597.00  1.9824E-001  
  597.50  1.9898E-001  
  598.00  1.9952E-001  
  598.50  1.9989E-001  
  599.00  2.0068E-001  
  599.50  2.0176E-001  
  600.00  2.0279E-001  
  600.50  2.0346E-001  
  601.00  2.0426E-001  
  601.50  2.0510E-001  
  602.00  2.0634E-001  
  602.50  2.0744E-001  
  603.00  2.0877E-001  
  603.50  2.0995E-001  
  604.00  2.1106E-001  
  604.50  2.1162E-001  
  605.00  2.1211E-001  
  605.50  2.1304E-001  
  606.00  2.1410E-001  
  606.50  2.1521E-001  
  607.00  2.1633E-001  
  607.50  2.1788E-001  
  608.00  2.1895E-001  
  608.50  2.1936E-001  
  609.00  2.1922E-001  
  609.50  2.1985E-001  
  610.00  2.2070E-001  
  610.50  2.2140E-001  
  611.00  2.2212E-001  
  611.50  2.2344E-001  
  612.00  2.2490E-001  
  612.50  2.2593E-001  
  613.00  2.2651E-001  
  613.50  2.2735E-001  
  614.00  2.2870E-001  
  614.50  2.2934E-001  
  615.00  2.2967E-001  
  615.50  2.2993E-001  
  616.00  2.3085E-001  
  616.50  2.3187E-001  
  617.00  2.3228E-001  
  617.50  2.3264E-001  
  618.00  2.3358E-001  
  618.50  2.3477E-001  
  619.00  2.3588E-001  
  619.50  2.3680E-001  
  620.00  2.3754E-001  
  620.50  2.3791E-001  
  621.00  2.3825E-001  
  621.50  2.3873E-001  
  622.00  2.3983E-001  
  622.50  2.4090E-001  
  623.00  2.4179E-001  
  623.50  2.4234E-001  
  624.00  2.4255E-001  
  624.50  2.4296E-001  
  625.00  2.4371E-001  
  625.50  2.4478E-001  
  626.00  2.4581E-001  
  626.50  2.4653E-001  
  627.00  2.4698E-001  
  627.50  2.4703E-001  
  628.00  2.4822E-001  
  628.50  2.4959E-001  
  629.00  2.5075E-001  
  629.50  2.5123E-001  
  630.00  2.5162E-001  
  630.50  2.5254E-001  
  631.00  2.5380E-001  
  631.50  2.5531E-001  
  632.00  2.5659E-001  
  632.50  2.5717E-001  
  633.00  2.5772E-001  
  633.50  2.5831E-001  
  634.00  2.5935E-001  
  634.50  2.6035E-001  
  635.00  2.6150E-001  
  635.50  2.6211E-001  
  636.00  2.6259E-001  
  636.50  2.6299E-001  
  637.00  2.6344E-001  
  637.50  2.6420E-001  
  638.00  2.6507E-001  
  638.50  2.6682E-001  
  639.00  2.6805E-001  
  639.50  2.6910E-001  
  640.00  2.6921E-001  
  640.50  2.6972E-001  
  641.00  2.6975E-001  
  641.50  2.7036E-001  
  642.00  2.7073E-001  
  642.50  2.7177E-001  
  643.00  2.7257E-001  
  643.50  2.7361E-001  
  644.00  2.7433E-001  
  644.50  2.7519E-001  
  645.00  2.7606E-001  
  645.50  2.7697E-001  
  646.00  2.7844E-001  
  646.50  2.7970E-001  
  647.00  2.8086E-001  
  647.50  2.8116E-001  
  648.00  2.8127E-001  
  648.50  2.8196E-001  
  649.00  2.8313E-001  
  649.50  2.8466E-001  
  650.00  2.8511E-001  
  650.50  2.8528E-001  
  651.00  2.8510E-001  
  651.50  2.8553E-001  
  652.00  2.8649E-001  
  652.50  2.8720E-001  
  653.00  2.8806E-001  
  653.50  2.8881E-001  
  654.00  2.9023E-001  
  654.50  2.9190E-001  
  655.00  2.9278E-001  
  655.50  2.9339E-001  
  656.00  2.9347E-001  
  656.50  2.9365E-001  
  657.00  2.9372E-001  
  657.50  2.9446E-001  
  658.00  2.9561E-001  
  658.50  2.9745E-001  
  659.00  2.9885E-001  
  659.50  2.9962E-001  
  660.00  3.0023E-001  
  660.50  3.0097E-001  
  661.00  3.0199E-001  
  661.50  3.0223E-001  
  662.00  3.0146E-001  
  662.50  3.0183E-001  
  663.00  3.0263E-001  
  663.50  3.0360E-001  
  664.00  3.0377E-001  
  664.50  3.0389E-001  
  665.00  3.0502E-001  
  665.50  3.0526E-001  
  666.00  3.0564E-001  
  666.50  3.0636E-001  
  667.00  3.0783E-001  
  667.50  3.0855E-001  
  668.00  3.0864E-001  
  668.50  3.0943E-001  
  669.00  3.1054E-001  
  669.50  3.1168E-001  
  670.00  3.1173E-001  
  670.50  3.1239E-001  
  671.00  3.1286E-001  
  671.50  3.1326E-001  
  672.00  3.1313E-001  
  672.50  3.1324E-001  
  673.00  3.1453E-001  
  673.50  3.1562E-001  
  674.00  3.1636E-001  
  674.50  3.1589E-001  
  675.00  3.1580E-001  
  675.50  3.1625E-001  
  676.00  3.1769E-001  
  676.50  3.1876E-001  
  677.00  3.1904E-001  
  677.50  3.1911E-001  
  678.00  3.1941E-001  
  678.50  3.2002E-001  
  679.00  3.2083E-001  
  679.50  3.2152E-001  
  680.00  3.2233E-001  
  680.50  3.2262E-001  
  681.00  3.2237E-001  
  681.50  3.2261E-001  
  682.00  3.2373E-001  
  682.50  3.2552E-001  
  683.00  3.2630E-001  
  683.50  3.2651E-001  
  684.00  3.2695E-001  
  684.50  3.2736E-001  
  685.00  3.2743E-001  
  685.50  3.2761E-001  
  686.00  3.2781E-001  
  686.50  3.2852E-001  
  687.00  3.2897E-001  
  687.50  3.3058E-001  
  688.00  3.3190E-001  
  688.50  3.3259E-001  
  689.00  3.3250E-001  
  689.50  3.3324E-001  
  690.00  3.3400E-001  
  690.50  3.3454E-001  
  691.00  3.3380E-001  
  691.50  3.3431E-001  
  692.00  3.3508E-001  
  692.50  3.3549E-001  
  693.00  3.3540E-001  
  693.50  3.3571E-001  
  694.00  3.3687E-001  
  694.50  3.3728E-001  
  695.00  3.3733E-001  
  695.50  3.3793E-001  
  696.00  3.3892E-001  
  696.50  3.4037E-001  
  697.00  3.4132E-001  
  697.50  3.4193E-001  
  698.00  3.4167E-001  
  698.50  3.4135E-001  
  699.00  3.4128E-001  
  699.50  3.4170E-001  
  700.00  3.4306E-001  
  700.50  3.4468E-001  
  701.00  3.4607E-001  
  701.50  3.4696E-001  
  702.00  3.4780E-001  
  702.50  3.4911E-001  
  703.00  3.4895E-001  
  703.50  3.4829E-001  
  704.00  3.4814E-001  
  704.50  3.5010E-001  
  705.00  3.5181E-001  
  705.50  3.5295E-001  
  706.00  3.5283E-001  
  706.50  3.5333E-001  
  707.00  3.5320E-001  
  707.50  3.5430E-001  
  708.00  3.5500E-001  
  708.50  3.5598E-001  
  709.00  3.5601E-001  
  709.50  3.5653E-001  
  710.00  3.5739E-001  
  710.50  3.5822E-001  
  711.00  3.5947E-001  
  711.50  3.5994E-001  
  712.00  3.6046E-001  
  712.50  3.6062E-001  
  713.00  3.6092E-001  
  713.50  3.6114E-001  
  714.00  3.6199E-001  
  714.50  3.6311E-001  
  715.00  3.6392E-001  
  715.50  3.6375E-001  
  716.00  3.6393E-001  
  716.50  3.6356E-001  
  717.00  3.6356E-001  
  717.50  3.6373E-001  
  718.00  3.6442E-001  
  718.50  3.6523E-001  
  719.00  3.6620E-001  
  719.50  3.6723E-001  
  720.00  3.6841E-001  
  720.50  3.6904E-001  
  721.00  3.6999E-001  
  721.50  3.7039E-001  
  722.00  3.7045E-001  
  722.50  3.7085E-001  
  723.00  3.7095E-001  
  723.50  3.7136E-001  
  724.00  3.7184E-001  
  724.50  3.7328E-001  
  725.00  3.7420E-001  
  725.50  3.7483E-001  
  726.00  3.7536E-001  
  726.50  3.7692E-001  
  727.00  3.7871E-001  
  727.50  3.7998E-001  
  728.00  3.7969E-001  
  728.50  3.8067E-001  
  729.00  3.8072E-001  
  729.50  3.8045E-001  
  730.00  3.7969E-001  
  730.50  3.8063E-001  
  731.00  3.8294E-001  
  731.50  3.8465E-001  
  732.00  3.8603E-001  
  732.50  3.8610E-001  
  733.00  3.8689E-001  
  733.50  3.8788E-001  
  734.00  3.8796E-001  
  734.50  3.8781E-001  
  735.00  3.8728E-001  
  735.50  3.8732E-001  
  736.00  3.8842E-001  
  736.50  3.9043E-001  
  737.00  3.9211E-001  
  737.50  3.9145E-001  
  738.00  3.9177E-001  
  738.50  3.9333E-001  
  739.00  3.9531E-001  
  739.50  3.9592E-001  
  740.00  3.9615E-001  
  740.50  3.9613E-001  
  741.00  3.9703E-001  
  741.50  3.9677E-001  
  742.00  3.9636E-001  
  742.50  3.9573E-001  
  743.00  3.9767E-001  
  743.50  3.9943E-001  
  744.00  4.0120E-001  
  744.50  4.0277E-001  
  745.00  4.0374E-001  
  745.50  4.0221E-001  
  746.00  4.0095E-001  
  746.50  4.0128E-001  
  747.00  4.0229E-001  
  747.50  4.0328E-001  
  748.00  4.0286E-001  
  748.50  4.0364E-001  
  749.00  4.0489E-001  
  749.50  4.0769E-001  
  750.00  4.0931E-001  
  750.50  4.0992E-001  
  751.00  4.0971E-001  
  751.50  4.0822E-001  
  752.00  4.0853E-001  
  752.50  4.1009E-001  
  753.00  4.1266E-001  
  753.50  4.1222E-001  
  754.00  4.1204E-001  
  754.50  4.1269E-001  
  755.00  4.1515E-001  
  755.50  4.1702E-001  
  756.00  4.1706E-001  
  756.50  4.1626E-001  
  757.00  4.1646E-001  
  757.50  4.1755E-001  
  758.00  4.1783E-001  
  758.50  4.1730E-001  
  759.00  4.1719E-001  
  759.50  4.1818E-001  
  760.00  4.1929E-001  
  760.50  4.1999E-001  
  761.00  4.1991E-001  
  761.50  4.2013E-001  
  762.00  4.2056E-001  
  762.50  4.2019E-001  
  763.00  4.2098E-001  
  763.50  4.2218E-001  
  764.00  4.2506E-001  
  764.50  4.2611E-001  
  765.00  4.2666E-001  
  765.50  4.2659E-001  
  766.00  4.2801E-001  
  766.50  4.2917E-001  
  767.00  4.3053E-001  
  767.50  4.3195E-001  
  768.00  4.3367E-001  
  768.50  4.3239E-001  
  769.00  4.3067E-001  
  769.50  4.2956E-001  
  770.00  4.3010E-001  
  770.50  4.3119E-001  
  771.00  4.3338E-001  
  771.50  4.3416E-001  
  772.00  4.3359E-001  
  772.50  4.3356E-001  
  773.00  4.3434E-001  
  773.50  4.3519E-001  
  774.00  4.3618E-001  
  774.50  4.3604E-001  
  775.00  4.3488E-001  
  775.50  4.3504E-001  
  776.00  4.3545E-001  
  776.50  4.3595E-001  
  777.00  4.3596E-001  
  777.50  4.3753E-001  
  778.00  4.3828E-001  
  778.50  4.3828E-001  
  779.00  4.3786E-001  
  779.50  4.3811E-001  
  780.00  4.4090E-001  
  780.50  4.4339E-001  
  781.00  4.4477E-001  
  781.50  4.4425E-001  
  782.00  4.4490E-001  
  782.50  4.4351E-001  
  783.00  4.4404E-001  
  783.50  4.4558E-001  
  784.00  4.4834E-001  
  784.50  4.4892E-001  
  785.00  4.4873E-001  
  785.50  4.4947E-001  
  786.00  4.5014E-001  
  786.50  4.5147E-001  
  787.00  4.5061E-001  
  787.50  4.4888E-001  
  788.00  4.4857E-001  
  788.50  4.5042E-001  
  789.00  4.5388E-001  
  789.50  4.5602E-001  
  790.00  4.5603E-001  
  790.50  4.5481E-001  
  791.00  4.5523E-001  
  791.50  4.5609E-001  
  792.00  4.5732E-001  
  792.50  4.5774E-001  
  793.00  4.5772E-001  
  793.50  4.5743E-001  
  794.00  4.5676E-001  
  794.50  4.5798E-001  
  795.00  4.5953E-001  
  795.50  4.5994E-001  
  796.00  4.6012E-001  
  796.50  4.6133E-001  
  797.00  4.6346E-001  
  797.50  4.6507E-001  
  798.00  4.6667E-001  
  798.50  4.6548E-001  
  799.00  4.6479E-001  
  799.50  4.6420E-001  
  800.00  4.6281E-001  
  800.50  4.6387E-001  
  801.00  4.6555E-001  
  801.50  4.6581E-001  
  802.00  4.6354E-001  
  802.50  4.6298E-001  
  803.00  4.6468E-001  
  803.50  4.6630E-001  
  804.00  4.6680E-001  
  804.50  4.6743E-001  
  805.00  4.6927E-001  
  805.50  4.6994E-001  
  806.00  4.7331E-001  
  806.50  4.7280E-001  
  807.00  4.7123E-001  
  807.50  4.6936E-001  
  808.00  4.7086E-001  
  808.50  4.7186E-001  
  809.00  4.7254E-001  
  809.50  4.7411E-001  
  810.00  4.7514E-001  
  810.50  4.7567E-001  
  811.00  4.7616E-001  
  811.50  4.7655E-001  
  812.00  4.7705E-001  
  812.50  4.7676E-001  
  813.00  4.7732E-001  
  813.50  4.7996E-001  
  814.00  4.8027E-001  
  814.50  4.7901E-001  
  815.00  4.8000E-001  
  815.50  4.8206E-001  
  816.00  4.8480E-001  
  816.50  4.8503E-001  
  817.00  4.8604E-001  
  817.50  4.8513E-001  
  818.00  4.8731E-001  
  818.50  4.8799E-001  
  819.00  4.8649E-001  
  819.50  4.8591E-001  
  820.00  4.8912E-001  
  820.50  4.9165E-001  
  821.00  4.9135E-001  
  821.50  4.9114E-001  
  822.00  4.8981E-001  
  822.50  4.8976E-001  
  823.00  4.9026E-001  
  823.50  4.9197E-001  
  824.00  4.9289E-001  
  824.50  4.9317E-001  
  825.00  4.9290E-001  
  825.50  4.9361E-001  
  826.00  4.9425E-001  
  826.50  4.9559E-001  
  827.00  4.9832E-001  
  827.50  5.0017E-001  
  828.00  4.9799E-001  
  828.50  4.9724E-001  
  829.00  5.0041E-001  
  829.50  5.0390E-001  
  830.00  5.0528E-001  
  830.50  5.0819E-001  
  831.00  5.0831E-001  
  831.50  5.0577E-001  
  832.00  5.0477E-001  
  832.50  5.0497E-001  
  833.00  5.0205E-001  
  833.50  5.0295E-001  
  834.00  5.0438E-001  
  834.50  5.0442E-001  
  835.00  5.0333E-001  
  835.50  5.0577E-001  
  836.00  5.0760E-001  
  836.50  5.0717E-001  
  837.00  5.0908E-001  
  837.50  5.1304E-001  
  838.00  5.1386E-001  
  838.50  5.1156E-001  
  839.00  5.1080E-001  
  839.50  5.1294E-001  
  840.00  5.1251E-001  
  840.50  5.1197E-001  
  841.00  5.1415E-001  
  841.50  5.1609E-001  
  842.00  5.1489E-001  
  842.50  5.1131E-001  
  843.00  5.1121E-001  
  843.50  5.1679E-001  
  844.00  5.1946E-001  
  844.50  5.1941E-001  
  845.00  5.2236E-001  
  845.50  5.2250E-001  
  846.00  5.2082E-001  
  846.50  5.2099E-001  
  847.00  5.2340E-001  
  847.50  5.2341E-001  
  848.00  5.2279E-001  
  848.50  5.2341E-001  
  849.00  5.2421E-001  
  849.50  5.2286E-001  
  850.00  5.2067E-001  
  850.50  5.1942E-001  
  851.00  5.2167E-001  
  851.50  5.2701E-001  
  852.00  5.3077E-001  
  852.50  5.3082E-001  
  853.00  5.2976E-001  
  853.50  5.3020E-001  
  854.00  5.2968E-001  
  854.50  5.3165E-001  
  855.00  5.3372E-001  
  855.50  5.3340E-001  
  856.00  5.2959E-001  
  856.50  5.3028E-001  
  857.00  5.3649E-001  
  857.50  5.3933E-001  
  858.00  5.3952E-001  
  858.50  5.4203E-001  
  859.00  5.4454E-001  
  859.50  5.4115E-001  
  860.00  5.3919E-001  
  860.50  5.3995E-001  
  861.00  5.4290E-001  
  861.50  5.4276E-001  
  862.00  5.4163E-001  
  862.50  5.4148E-001  
  863.00  5.4151E-001  
  863.50  5.3850E-001  
  864.00  5.4163E-001  
  864.50  5.4356E-001  
  865.00  5.4446E-001  
  865.50  5.5009E-001  
  866.00  5.5272E-001  
  866.50  5.4722E-001  
  867.00  5.4650E-001  
  867.50  5.5437E-001  
  868.00  5.5922E-001  
  868.50  5.5651E-001  
  869.00  5.5733E-001  
  869.50  5.5581E-001  
  870.00  5.5255E-001  
  870.50  5.5072E-001  
  871.00  5.5202E-001  
  871.50  5.5650E-001  
  872.00  5.5539E-001  
  872.50  5.5026E-001  
  873.00  5.5220E-001  
  873.50  5.5775E-001  
  874.00  5.5951E-001  
  874.50  5.6067E-001  
  875.00  5.6136E-001  
  875.50  5.6046E-001  
  876.00  5.5938E-001  
  876.50  5.5862E-001  
  877.00  5.6257E-001  
  877.50  5.6369E-001  
  878.00  5.6220E-001  
  878.50  5.5985E-001  
  879.00  5.6169E-001  
  879.50  5.6489E-001  
  880.00  5.6754E-001  
  880.50  5.6944E-001  
  881.00  5.7038E-001  
  881.50  5.6436E-001  
  882.00  5.6135E-001  
  882.50  5.6675E-001  
  883.00  5.6937E-001  
  883.50  5.7001E-001  
  884.00  5.7247E-001  
  884.50  5.7448E-001  
  885.00  5.7353E-001  
  885.50  5.7228E-001  
  886.00  5.7044E-001  
  886.50  5.6746E-001  
  887.00  5.7165E-001  
  887.50  5.8170E-001  
  888.00  5.8415E-001  
  888.50  5.8168E-001  
  889.00  5.7837E-001  
  889.50  5.7847E-001  
  890.00  5.7756E-001  
  890.50  5.7669E-001  
  891.00  5.8069E-001  
  891.50  5.8215E-001  
  892.00  5.8165E-001  
  892.50  5.8112E-001  
  893.00  5.8369E-001  
  893.50  5.8493E-001  
  894.00  5.8224E-001  
  894.50  5.7696E-001  
  895.00  5.7850E-001  
  895.50  5.8701E-001  
  896.00  5.8981E-001  
  896.50  5.8625E-001  
  897.00  5.8655E-001  
  897.50  5.9185E-001  
  898.00  5.9180E-001  
  898.50  5.9005E-001  
  899.00  5.8986E-001  
  899.50  1.1694E-002  
