
# From lspdd.org
# 
# Name: Halo GE PAR38 Domestique
# Indice spectral Valeur 
# MSI 0.03 
# SLI 0.09 
# IPI 2.40 
# Pourcentage de bleu 0.2 
# Caractéristique Valeur 
# CCT calculée (K) 1048 
# CCT du fabricant (K) 1100 
# Tension (V) 120 
# Puissance (W) 250.0 
# Efficacité lumineuse (Lum/W) ND 
#
# Image: '/app/system/img_2s/2732/medium_image2.jpg?1612236468'
# Image: '/app/system/img_1s/2732/medium_image1.jpg?1612236466'
# 

  273.00  0.0000E+000  
  273.50  0.0000E+000  
  274.00  0.0000E+000  
  274.50  0.0000E+000  
  275.00  0.0000E+000  
  275.50  0.0000E+000  
  276.00  0.0000E+000  
  276.50  0.0000E+000  
  277.00  0.0000E+000  
  277.50  0.0000E+000  
  278.00  0.0000E+000  
  278.50  0.0000E+000  
  279.00  0.0000E+000  
  279.50  0.0000E+000  
  280.00  0.0000E+000  
  280.50  0.0000E+000  
  281.00  0.0000E+000  
  281.50  0.0000E+000  
  282.00  0.0000E+000  
  282.50  0.0000E+000  
  283.00  0.0000E+000  
  283.50  0.0000E+000  
  284.00  0.0000E+000  
  284.50  0.0000E+000  
  285.00  0.0000E+000  
  285.50  0.0000E+000  
  286.00  0.0000E+000  
  286.50  0.0000E+000  
  287.00  0.0000E+000  
  287.50  0.0000E+000  
  288.00  0.0000E+000  
  288.50  0.0000E+000  
  289.00  0.0000E+000  
  289.50  0.0000E+000  
  290.00  0.0000E+000  
  290.50  0.0000E+000  
  291.00  0.0000E+000  
  291.50  0.0000E+000  
  292.00  0.0000E+000  
  292.50  0.0000E+000  
  293.00  0.0000E+000  
  293.50  0.0000E+000  
  294.00  0.0000E+000  
  294.50  0.0000E+000  
  295.00  0.0000E+000  
  295.50  0.0000E+000  
  296.00  0.0000E+000  
  296.50  0.0000E+000  
  297.00  0.0000E+000  
  297.50  0.0000E+000  
  298.00  0.0000E+000  
  298.50  0.0000E+000  
  299.00  0.0000E+000  
  299.50  0.0000E+000  
  300.00  5.4846E-005  
  300.50  6.5704E-005  
  301.00  7.0701E-007  
  301.50  0.0000E+000  
  302.00  0.0000E+000  
  302.50  3.5106E-005  
  303.00  0.0000E+000  
  303.50  9.2289E-006  
  304.00  1.8899E-004  
  304.50  2.1649E-004  
  305.00  1.9366E-005  
  305.50  5.1113E-005  
  306.00  6.3462E-005  
  306.50  1.4620E-004  
  307.00  4.9459E-004  
  307.50  4.1053E-004  
  308.00  3.4714E-004  
  308.50  4.4300E-004  
  309.00  4.6587E-004  
  309.50  8.2704E-004  
  310.00  1.0211E-003  
  310.50  1.1146E-003  
  311.00  1.1398E-003  
  311.50  7.5707E-004  
  312.00  6.0593E-004  
  312.50  3.7115E-004  
  313.00  1.6526E-006  
  313.50  0.0000E+000  
  314.00  0.0000E+000  
  314.50  0.0000E+000  
  315.00  0.0000E+000  
  315.50  0.0000E+000  
  316.00  1.4816E-004  
  316.50  2.3069E-004  
  317.00  1.9687E-004  
  317.50  1.6534E-005  
  318.00  0.0000E+000  
  318.50  0.0000E+000  
  319.00  6.4263E-007  
  319.50  1.3066E-004  
  320.00  6.3379E-004  
  320.50  7.2311E-004  
  321.00  5.0664E-004  
  321.50  3.0536E-004  
  322.00  6.1245E-006  
  322.50  2.1996E-005  
  323.00  2.2874E-004  
  323.50  2.0096E-004  
  324.00  4.8869E-005  
  324.50  4.1207E-005  
  325.00  0.0000E+000  
  325.50  0.0000E+000  
  326.00  0.0000E+000  
  326.50  1.0184E-004  
  327.00  2.1660E-004  
  327.50  3.4794E-004  
  328.00  5.8792E-004  
  328.50  8.2979E-004  
  329.00  9.0486E-004  
  329.50  8.0924E-004  
  330.00  3.4962E-004  
  330.50  0.0000E+000  
  331.00  0.0000E+000  
  331.50  5.2030E-005  
  332.00  5.0005E-004  
  332.50  6.7175E-004  
  333.00  8.4181E-004  
  333.50  8.2102E-004  
  334.00  7.0177E-004  
  334.50  7.8888E-004  
  335.00  6.5049E-004  
  335.50  6.1045E-004  
  336.00  4.4102E-004  
  336.50  3.7663E-004  
  337.00  1.6209E-004  
  337.50  9.4599E-007  
  338.00  0.0000E+000  
  338.50  0.0000E+000  
  339.00  0.0000E+000  
  339.50  0.0000E+000  
  340.00  0.0000E+000  
  340.50  1.3155E-004  
  341.00  4.9401E-004  
  341.50  6.7203E-004  
  342.00  4.0130E-004  
  342.50  2.4506E-004  
  343.00  1.1452E-004  
  343.50  1.1905E-004  
  344.00  0.0000E+000  
  344.50  0.0000E+000  
  345.00  0.0000E+000  
  345.50  1.3593E-004  
  346.00  5.0856E-004  
  346.50  5.7152E-004  
  347.00  3.1436E-004  
  347.50  5.7651E-005  
  348.00  0.0000E+000  
  348.50  0.0000E+000  
  349.00  6.4469E-005  
  349.50  1.5529E-004  
  350.00  3.3269E-004  
  350.50  6.4447E-004  
  351.00  9.0041E-004  
  351.50  1.1844E-003  
  352.00  8.6843E-004  
  352.50  4.5650E-004  
  353.00  2.0659E-004  
  353.50  1.4748E-004  
  354.00  3.0201E-004  
  354.50  5.1652E-004  
  355.00  4.8216E-004  
  355.50  2.1773E-004  
  356.00  0.0000E+000  
  356.50  0.0000E+000  
  357.00  0.0000E+000  
  357.50  0.0000E+000  
  358.00  1.8388E-005  
  358.50  0.0000E+000  
  359.00  7.9423E-005  
  359.50  2.8289E-004  
  360.00  2.6441E-004  
  360.50  6.1496E-005  
  361.00  0.0000E+000  
  361.50  0.0000E+000  
  362.00  0.0000E+000  
  362.50  0.0000E+000  
  363.00  0.0000E+000  
  363.50  8.2755E-005  
  364.00  1.8381E-004  
  364.50  2.2152E-004  
  365.00  3.1001E-004  
  365.50  6.9630E-005  
  366.00  4.1101E-005  
  366.50  2.7922E-006  
  367.00  0.0000E+000  
  367.50  0.0000E+000  
  368.00  2.7523E-005  
  368.50  3.4564E-004  
  369.00  5.0946E-004  
  369.50  4.9293E-004  
  370.00  9.3120E-005  
  370.50  3.5694E-006  
  371.00  9.8912E-006  
  371.50  5.0977E-005  
  372.00  2.1321E-004  
  372.50  2.8835E-004  
  373.00  2.4214E-004  
  373.50  2.8927E-004  
  374.00  2.6258E-004  
  374.50  1.4916E-004  
  375.00  1.6770E-004  
  375.50  3.2607E-004  
  376.00  2.7588E-004  
  376.50  1.5733E-004  
  377.00  0.0000E+000  
  377.50  0.0000E+000  
  378.00  0.0000E+000  
  378.50  0.0000E+000  
  379.00  0.0000E+000  
  379.50  0.0000E+000  
  380.00  4.3268E-005  
  380.50  1.7380E-004  
  381.00  1.5311E-004  
  381.50  2.8493E-004  
  382.00  2.1659E-004  
  382.50  1.8518E-004  
  383.00  3.1107E-004  
  383.50  1.7989E-004  
  384.00  0.0000E+000  
  384.50  0.0000E+000  
  385.00  0.0000E+000  
  385.50  6.3889E-005  
  386.00  2.2884E-004  
  386.50  7.2672E-005  
  387.00  1.7711E-004  
  387.50  4.4225E-004  
  388.00  5.8050E-004  
  388.50  8.0696E-004  
  389.00  7.5912E-004  
  389.50  5.9490E-004  
  390.00  5.9053E-004  
  390.50  4.7109E-004  
  391.00  2.5322E-004  
  391.50  4.9076E-005  
  392.00  0.0000E+000  
  392.50  0.0000E+000  
  393.00  0.0000E+000  
  393.50  0.0000E+000  
  394.00  0.0000E+000  
  394.50  0.0000E+000  
  395.00  1.6878E-005  
  395.50  1.8222E-004  
  396.00  4.0957E-004  
  396.50  4.5800E-004  
  397.00  4.8903E-004  
  397.50  4.4735E-004  
  398.00  5.8837E-004  
  398.50  7.8762E-004  
  399.00  6.9036E-004  
  399.50  5.8879E-004  
  400.00  1.7674E-004  
  400.50  0.0000E+000  
  401.00  0.0000E+000  
  401.50  0.0000E+000  
  402.00  0.0000E+000  
  402.50  0.0000E+000  
  403.00  0.0000E+000  
  403.50  7.1790E-005  
  404.00  2.2943E-004  
  404.50  2.7948E-004  
  405.00  4.6501E-004  
  405.50  4.8052E-004  
  406.00  5.1730E-004  
  406.50  5.4270E-004  
  407.00  4.7074E-004  
  407.50  3.8548E-004  
  408.00  9.4301E-005  
  408.50  0.0000E+000  
  409.00  0.0000E+000  
  409.50  0.0000E+000  
  410.00  0.0000E+000  
  410.50  4.1841E-006  
  411.00  9.3622E-006  
  411.50  0.0000E+000  
  412.00  5.6102E-007  
  412.50  4.9814E-005  
  413.00  2.8649E-004  
  413.50  5.9659E-004  
  414.00  5.8555E-004  
  414.50  2.7274E-004  
  415.00  1.6005E-005  
  415.50  0.0000E+000  
  416.00  2.6626E-005  
  416.50  2.5382E-004  
  417.00  3.6889E-004  
  417.50  2.3527E-004  
  418.00  3.3258E-005  
  418.50  1.0397E-004  
  419.00  2.8599E-004  
  419.50  4.0837E-004  
  420.00  3.4579E-004  
  420.50  1.0931E-004  
  421.00  9.2858E-006  
  421.50  5.7838E-005  
  422.00  1.8570E-004  
  422.50  3.4720E-004  
  423.00  4.0885E-004  
  423.50  4.9723E-004  
  424.00  4.2636E-004  
  424.50  3.4586E-004  
  425.00  8.1063E-005  
  425.50  0.0000E+000  
  426.00  0.0000E+000  
  426.50  0.0000E+000  
  427.00  9.1070E-005  
  427.50  2.9024E-004  
  428.00  3.0059E-004  
  428.50  1.7798E-004  
  429.00  1.4802E-005  
  429.50  0.0000E+000  
  430.00  0.0000E+000  
  430.50  0.0000E+000  
  431.00  7.0363E-005  
  431.50  3.2065E-004  
  432.00  4.7167E-004  
  432.50  6.6106E-004  
  433.00  5.7430E-004  
  433.50  3.9672E-004  
  434.00  1.7475E-004  
  434.50  3.9460E-005  
  435.00  0.0000E+000  
  435.50  0.0000E+000  
  436.00  0.0000E+000  
  436.50  0.0000E+000  
  437.00  0.0000E+000  
  437.50  0.0000E+000  
  438.00  0.0000E+000  
  438.50  0.0000E+000  
  439.00  0.0000E+000  
  439.50  1.9831E-004  
  440.00  5.5973E-004  
  440.50  5.9238E-004  
  441.00  5.1408E-004  
  441.50  3.6529E-004  
  442.00  2.8859E-004  
  442.50  1.9928E-004  
  443.00  1.6818E-004  
  443.50  6.7077E-005  
  444.00  1.5133E-004  
  444.50  3.0671E-004  
  445.00  1.7686E-004  
  445.50  7.9363E-005  
  446.00  2.3910E-006  
  446.50  9.3201E-005  
  447.00  9.2398E-005  
  447.50  5.2477E-005  
  448.00  0.0000E+000  
  448.50  0.0000E+000  
  449.00  0.0000E+000  
  449.50  0.0000E+000  
  450.00  0.0000E+000  
  450.50  0.0000E+000  
  451.00  0.0000E+000  
  451.50  0.0000E+000  
  452.00  1.1720E-004  
  452.50  3.3757E-004  
  453.00  4.3104E-004  
  453.50  4.8565E-004  
  454.00  3.7621E-004  
  454.50  3.7210E-004  
  455.00  3.0392E-004  
  455.50  2.1408E-004  
  456.00  1.8001E-005  
  456.50  6.3778E-006  
  457.00  0.0000E+000  
  457.50  0.0000E+000  
  458.00  0.0000E+000  
  458.50  2.5413E-005  
  459.00  1.3237E-004  
  459.50  1.6914E-004  
  460.00  2.1375E-004  
  460.50  1.7630E-004  
  461.00  2.5617E-004  
  461.50  2.1499E-004  
  462.00  1.0553E-004  
  462.50  6.2319E-005  
  463.00  1.2845E-005  
  463.50  1.3390E-004  
  464.00  9.1806E-005  
  464.50  5.4295E-005  
  465.00  0.0000E+000  
  465.50  0.0000E+000  
  466.00  0.0000E+000  
  466.50  3.1765E-005  
  467.00  2.3046E-004  
  467.50  4.1309E-004  
  468.00  5.5573E-004  
  468.50  3.7910E-004  
  469.00  2.0945E-004  
  469.50  1.2031E-004  
  470.00  4.2060E-005  
  470.50  2.7391E-006  
  471.00  0.0000E+000  
  471.50  0.0000E+000  
  472.00  0.0000E+000  
  472.50  1.7992E-005  
  473.00  1.6682E-004  
  473.50  2.1306E-004  
  474.00  1.9449E-004  
  474.50  7.4184E-005  
  475.00  2.3690E-004  
  475.50  4.5194E-004  
  476.00  4.7257E-004  
  476.50  2.6817E-004  
  477.00  3.3558E-005  
  477.50  7.0129E-007  
  478.00  8.4530E-005  
  478.50  2.3708E-004  
  479.00  2.6235E-004  
  479.50  2.9131E-004  
  480.00  3.3510E-004  
  480.50  4.8238E-004  
  481.00  5.5251E-004  
  481.50  5.2676E-004  
  482.00  3.2328E-004  
  482.50  1.6411E-004  
  483.00  0.0000E+000  
  483.50  6.0524E-006  
  484.00  1.0821E-004  
  484.50  1.9866E-004  
  485.00  1.8938E-004  
  485.50  9.0051E-005  
  486.00  8.9939E-005  
  486.50  3.0700E-004  
  487.00  4.8668E-004  
  487.50  5.3736E-004  
  488.00  3.4042E-004  
  488.50  1.1352E-004  
  489.00  3.4521E-006  
  489.50  1.7577E-005  
  490.00  1.0423E-004  
  490.50  1.8064E-004  
  491.00  1.1864E-004  
  491.50  1.5602E-004  
  492.00  8.0903E-005  
  492.50  2.9844E-006  
  493.00  0.0000E+000  
  493.50  0.0000E+000  
  494.00  0.0000E+000  
  494.50  0.0000E+000  
  495.00  4.0239E-006  
  495.50  7.6781E-006  
  496.00  0.0000E+000  
  496.50  0.0000E+000  
  497.00  0.0000E+000  
  497.50  0.0000E+000  
  498.00  0.0000E+000  
  498.50  1.4924E-005  
  499.00  1.0004E-005  
  499.50  1.6788E-005  
  500.00  9.9009E-005  
  500.50  7.8533E-005  
  501.00  6.5167E-005  
  501.50  2.8380E-005  
  502.00  1.1606E-004  
  502.50  1.3930E-004  
  503.00  1.2987E-004  
  503.50  9.4688E-005  
  504.00  8.2296E-005  
  504.50  9.8486E-005  
  505.00  1.0834E-004  
  505.50  1.0149E-004  
  506.00  1.1227E-004  
  506.50  9.4382E-005  
  507.00  5.4051E-005  
  507.50  3.7985E-005  
  508.00  6.5171E-005  
  508.50  4.6317E-005  
  509.00  5.4139E-005  
  509.50  3.2430E-007  
  510.00  0.0000E+000  
  510.50  0.0000E+000  
  511.00  0.0000E+000  
  511.50  0.0000E+000  
  512.00  1.6737E-005  
  512.50  3.9158E-005  
  513.00  9.9017E-005  
  513.50  6.3356E-005  
  514.00  1.1918E-004  
  514.50  1.3844E-004  
  515.00  2.0254E-004  
  515.50  2.4659E-004  
  516.00  1.8926E-004  
  516.50  1.1380E-004  
  517.00  3.3775E-005  
  517.50  3.2220E-006  
  518.00  0.0000E+000  
  518.50  0.0000E+000  
  519.00  0.0000E+000  
  519.50  4.3080E-007  
  520.00  1.1633E-004  
  520.50  3.0876E-004  
  521.00  4.1892E-004  
  521.50  5.0529E-004  
  522.00  5.1674E-004  
  522.50  4.7254E-004  
  523.00  3.3762E-004  
  523.50  2.9260E-004  
  524.00  3.5748E-004  
  524.50  4.9269E-004  
  525.00  5.4447E-004  
  525.50  5.5717E-004  
  526.00  4.8120E-004  
  526.50  4.8977E-004  
  527.00  4.8054E-004  
  527.50  4.2533E-004  
  528.00  5.0502E-004  
  528.50  6.0768E-004  
  529.00  7.4518E-004  
  529.50  8.0254E-004  
  530.00  8.1461E-004  
  530.50  8.0708E-004  
  531.00  8.3764E-004  
  531.50  9.3080E-004  
  532.00  9.9379E-004  
  532.50  1.0730E-003  
  533.00  1.0193E-003  
  533.50  8.9199E-004  
  534.00  7.7585E-004  
  534.50  7.2259E-004  
  535.00  8.4940E-004  
  535.50  9.9270E-004  
  536.00  1.1551E-003  
  536.50  1.2898E-003  
  537.00  1.4057E-003  
  537.50  1.5698E-003  
  538.00  1.7007E-003  
  538.50  1.7379E-003  
  539.00  1.7022E-003  
  539.50  1.6407E-003  
  540.00  1.6102E-003  
  540.50  1.5960E-003  
  541.00  1.6977E-003  
  541.50  1.7706E-003  
  542.00  1.8585E-003  
  542.50  1.9428E-003  
  543.00  2.0562E-003  
  543.50  2.3159E-003  
  544.00  2.5659E-003  
  544.50  2.7468E-003  
  545.00  2.7459E-003  
  545.50  2.6515E-003  
  546.00  2.5886E-003  
  546.50  2.6365E-003  
  547.00  2.7877E-003  
  547.50  2.8596E-003  
  548.00  3.0248E-003  
  548.50  3.1530E-003  
  549.00  3.2514E-003  
  549.50  3.2980E-003  
  550.00  3.4068E-003  
  550.50  3.5706E-003  
  551.00  3.8033E-003  
  551.50  3.9095E-003  
  552.00  3.9682E-003  
  552.50  4.0091E-003  
  553.00  4.1437E-003  
  553.50  4.3539E-003  
  554.00  4.6532E-003  
  554.50  4.9291E-003  
  555.00  5.1468E-003  
  555.50  5.2596E-003  
  556.00  5.2946E-003  
  556.50  5.3893E-003  
  557.00  5.4519E-003  
  557.50  5.6776E-003  
  558.00  5.9615E-003  
  558.50  6.1828E-003  
  559.00  6.3039E-003  
  559.50  6.2433E-003  
  560.00  6.3183E-003  
  560.50  6.4069E-003  
  561.00  6.5885E-003  
  561.50  6.8257E-003  
  562.00  7.0632E-003  
  562.50  7.4210E-003  
  563.00  7.7311E-003  
  563.50  8.0388E-003  
  564.00  8.2589E-003  
  564.50  8.3168E-003  
  565.00  8.4876E-003  
  565.50  8.7059E-003  
  566.00  9.1436E-003  
  566.50  9.4728E-003  
  567.00  9.6000E-003  
  567.50  9.5755E-003  
  568.00  9.5996E-003  
  568.50  9.8316E-003  
  569.00  1.0270E-002  
  569.50  1.0625E-002  
  570.00  1.0932E-002  
  570.50  1.1032E-002  
  571.00  1.1332E-002  
  571.50  1.1623E-002  
  572.00  1.2003E-002  
  572.50  1.2131E-002  
  573.00  1.2377E-002  
  573.50  1.2508E-002  
  574.00  1.2806E-002  
  574.50  1.3110E-002  
  575.00  1.3575E-002  
  575.50  1.3937E-002  
  576.00  1.4329E-002  
  576.50  1.4684E-002  
  577.00  1.5141E-002  
  577.50  1.5377E-002  
  578.00  1.5485E-002  
  578.50  1.5528E-002  
  579.00  1.5806E-002  
  579.50  1.6315E-002  
  580.00  1.6851E-002  
  580.50  1.7258E-002  
  581.00  1.7578E-002  
  581.50  1.7908E-002  
  582.00  1.8276E-002  
  582.50  1.8551E-002  
  583.00  1.8720E-002  
  583.50  1.8792E-002  
  584.00  1.9116E-002  
  584.50  1.9562E-002  
  585.00  2.0084E-002  
  585.50  2.0617E-002  
  586.00  2.0972E-002  
  586.50  2.1242E-002  
  587.00  2.1608E-002  
  587.50  2.2094E-002  
  588.00  2.2610E-002  
  588.50  2.2947E-002  
  589.00  2.3230E-002  
  589.50  2.3719E-002  
  590.00  2.4133E-002  
  590.50  2.4564E-002  
  591.00  2.5048E-002  
  591.50  2.5480E-002  
  592.00  2.5781E-002  
  592.50  2.5977E-002  
  593.00  2.6328E-002  
  593.50  2.6852E-002  
  594.00  2.7332E-002  
  594.50  2.7713E-002  
  595.00  2.8331E-002  
  595.50  2.8836E-002  
  596.00  2.9306E-002  
  596.50  2.9595E-002  
  597.00  2.9916E-002  
  597.50  3.0314E-002  
  598.00  3.0907E-002  
  598.50  3.1583E-002  
  599.00  3.2287E-002  
  599.50  3.2633E-002  
  600.00  3.2759E-002  
  600.50  3.2878E-002  
  601.00  3.3389E-002  
  601.50  3.3914E-002  
  602.00  3.4808E-002  
  602.50  3.5530E-002  
  603.00  3.6240E-002  
  603.50  3.6625E-002  
  604.00  3.6824E-002  
  604.50  3.7302E-002  
  605.00  3.7619E-002  
  605.50  3.7923E-002  
  606.00  3.8251E-002  
  606.50  3.8513E-002  
  607.00  3.8873E-002  
  607.50  3.9292E-002  
  608.00  3.9743E-002  
  608.50  4.0394E-002  
  609.00  4.0936E-002  
  609.50  4.1538E-002  
  610.00  4.2040E-002  
  610.50  4.2638E-002  
  611.00  4.3354E-002  
  611.50  4.4002E-002  
  612.00  4.4515E-002  
  612.50  4.4983E-002  
  613.00  4.5601E-002  
  613.50  4.6189E-002  
  614.00  4.6595E-002  
  614.50  4.7086E-002  
  615.00  4.7452E-002  
  615.50  4.7770E-002  
  616.00  4.8136E-002  
  616.50  4.8598E-002  
  617.00  4.9165E-002  
  617.50  4.9509E-002  
  618.00  4.9816E-002  
  618.50  5.0427E-002  
  619.00  5.1094E-002  
  619.50  5.1886E-002  
  620.00  5.2429E-002  
  620.50  5.3130E-002  
  621.00  5.3853E-002  
  621.50  5.4409E-002  
  622.00  5.4668E-002  
  622.50  5.4832E-002  
  623.00  5.5387E-002  
  623.50  5.6165E-002  
  624.00  5.6842E-002  
  624.50  5.7482E-002  
  625.00  5.8221E-002  
  625.50  5.9143E-002  
  626.00  5.9762E-002  
  626.50  6.0372E-002  
  627.00  6.0728E-002  
  627.50  6.1290E-002  
  628.00  6.1744E-002  
  628.50  6.2400E-002  
  629.00  6.2790E-002  
  629.50  6.3418E-002  
  630.00  6.4184E-002  
  630.50  6.4623E-002  
  631.00  6.5333E-002  
  631.50  6.6032E-002  
  632.00  6.6966E-002  
  632.50  6.7213E-002  
  633.00  6.7361E-002  
  633.50  6.8017E-002  
  634.00  6.8829E-002  
  634.50  6.9606E-002  
  635.00  7.0115E-002  
  635.50  7.0800E-002  
  636.00  7.1165E-002  
  636.50  7.1557E-002  
  637.00  7.2034E-002  
  637.50  7.2796E-002  
  638.00  7.3617E-002  
  638.50  7.4436E-002  
  639.00  7.5196E-002  
  639.50  7.5689E-002  
  640.00  7.6049E-002  
  640.50  7.6587E-002  
  641.00  7.7216E-002  
  641.50  7.7837E-002  
  642.00  7.8348E-002  
  642.50  7.9199E-002  
  643.00  7.9897E-002  
  643.50  8.0441E-002  
  644.00  8.0752E-002  
  644.50  8.1389E-002  
  645.00  8.2558E-002  
  645.50  8.3500E-002  
  646.00  8.4266E-002  
  646.50  8.4698E-002  
  647.00  8.5295E-002  
  647.50  8.5935E-002  
  648.00  8.6643E-002  
  648.50  8.7359E-002  
  649.00  8.8064E-002  
  649.50  8.8472E-002  
  650.00  8.9269E-002  
  650.50  9.0018E-002  
  651.00  9.0508E-002  
  651.50  9.1039E-002  
  652.00  9.1730E-002  
  652.50  9.2845E-002  
  653.00  9.3511E-002  
  653.50  9.3926E-002  
  654.00  9.4684E-002  
  654.50  9.5450E-002  
  655.00  9.6411E-002  
  655.50  9.6953E-002  
  656.00  9.7727E-002  
  656.50  9.8294E-002  
  657.00  9.8844E-002  
  657.50  9.9301E-002  
  658.00  1.0007E-001  
  658.50  1.0059E-001  
  659.00  1.0130E-001  
  659.50  1.0211E-001  
  660.00  1.0329E-001  
  660.50  1.0403E-001  
  661.00  1.0464E-001  
  661.50  1.0523E-001  
  662.00  1.0549E-001  
  662.50  1.0577E-001  
  663.00  1.0595E-001  
  663.50  1.0671E-001  
  664.00  1.0779E-001  
  664.50  1.0860E-001  
  665.00  1.0921E-001  
  665.50  1.0894E-001  
  666.00  1.0914E-001  
  666.50  1.0947E-001  
  667.00  1.1035E-001  
  667.50  1.1108E-001  
  668.00  1.1178E-001  
  668.50  1.1222E-001  
  669.00  1.1285E-001  
  669.50  1.1359E-001  
  670.00  1.1447E-001  
  670.50  1.1490E-001  
  671.00  1.1542E-001  
  671.50  1.1636E-001  
  672.00  1.1739E-001  
  672.50  1.1777E-001  
  673.00  1.1786E-001  
  673.50  1.1834E-001  
  674.00  1.1916E-001  
  674.50  1.1981E-001  
  675.00  1.2039E-001  
  675.50  1.2101E-001  
  676.00  1.2170E-001  
  676.50  1.2214E-001  
  677.00  1.2276E-001  
  677.50  1.2324E-001  
  678.00  1.2391E-001  
  678.50  1.2446E-001  
  679.00  1.2507E-001  
  679.50  1.2586E-001  
  680.00  1.2649E-001  
  680.50  1.2720E-001  
  681.00  1.2743E-001  
  681.50  1.2780E-001  
  682.00  1.2827E-001  
  682.50  1.2949E-001  
  683.00  1.3043E-001  
  683.50  1.3084E-001  
  684.00  1.3059E-001  
  684.50  1.3114E-001  
  685.00  1.3196E-001  
  685.50  1.3272E-001  
  686.00  1.3332E-001  
  686.50  1.3436E-001  
  687.00  1.3564E-001  
  687.50  1.3672E-001  
  688.00  1.3725E-001  
  688.50  1.3724E-001  
  689.00  1.3701E-001  
  689.50  1.3752E-001  
  690.00  1.3876E-001  
  690.50  1.3978E-001  
  691.00  1.3966E-001  
  691.50  1.3973E-001  
  692.00  1.4040E-001  
  692.50  1.4138E-001  
  693.00  1.4195E-001  
  693.50  1.4258E-001  
  694.00  1.4359E-001  
  694.50  1.4409E-001  
  695.00  1.4431E-001  
  695.50  1.4490E-001  
  696.00  1.4595E-001  
  696.50  1.4720E-001  
  697.00  1.4802E-001  
  697.50  1.4894E-001  
  698.00  1.4958E-001  
  698.50  1.4944E-001  
  699.00  1.4926E-001  
  699.50  1.4916E-001  
  700.00  1.4974E-001  
  700.50  1.5033E-001  
  701.00  1.5114E-001  
  701.50  1.5223E-001  
  702.00  1.5293E-001  
  702.50  1.5366E-001  
  703.00  1.5396E-001  
  703.50  1.5449E-001  
  704.00  1.5502E-001  
  704.50  1.5594E-001  
  705.00  1.5685E-001  
  705.50  1.5795E-001  
  706.00  1.5889E-001  
  706.50  1.5945E-001  
  707.00  1.5974E-001  
  707.50  1.6023E-001  
  708.00  1.6074E-001  
  708.50  1.6121E-001  
  709.00  1.6154E-001  
  709.50  1.6285E-001  
  710.00  1.6448E-001  
  710.50  1.6584E-001  
  711.00  1.6571E-001  
  711.50  1.6566E-001  
  712.00  1.6603E-001  
  712.50  1.6655E-001  
  713.00  1.6697E-001  
  713.50  1.6762E-001  
  714.00  1.6860E-001  
  714.50  1.6920E-001  
  715.00  1.6999E-001  
  715.50  1.7095E-001  
  716.00  1.7220E-001  
  716.50  1.7247E-001  
  717.00  1.7284E-001  
  717.50  1.7312E-001  
  718.00  1.7386E-001  
  718.50  1.7403E-001  
  719.00  1.7462E-001  
  719.50  1.7468E-001  
  720.00  1.7542E-001  
  720.50  1.7601E-001  
  721.00  1.7724E-001  
  721.50  1.7819E-001  
  722.00  1.7890E-001  
  722.50  1.7950E-001  
  723.00  1.8067E-001  
  723.50  1.8162E-001  
  724.00  1.8197E-001  
  724.50  1.8178E-001  
  725.00  1.8169E-001  
  725.50  1.8209E-001  
  726.00  1.8242E-001  
  726.50  1.8355E-001  
  727.00  1.8517E-001  
  727.50  1.8702E-001  
  728.00  1.8788E-001  
  728.50  1.8780E-001  
  729.00  1.8754E-001  
  729.50  1.8745E-001  
  730.00  1.8793E-001  
  730.50  1.8900E-001  
  731.00  1.9011E-001  
  731.50  1.9136E-001  
  732.00  1.9190E-001  
  732.50  1.9230E-001  
  733.00  1.9212E-001  
  733.50  1.9268E-001  
  734.00  1.9363E-001  
  734.50  1.9431E-001  
  735.00  1.9501E-001  
  735.50  1.9536E-001  
  736.00  1.9592E-001  
  736.50  1.9626E-001  
  737.00  1.9659E-001  
  737.50  1.9699E-001  
  738.00  1.9813E-001  
  738.50  1.9975E-001  
  739.00  2.0108E-001  
  739.50  2.0155E-001  
  740.00  2.0099E-001  
  740.50  2.0010E-001  
  741.00  2.0016E-001  
  741.50  2.0203E-001  
  742.00  2.0388E-001  
  742.50  2.0463E-001  
  743.00  2.0488E-001  
  743.50  2.0608E-001  
  744.00  2.0750E-001  
  744.50  2.0911E-001  
  745.00  2.0959E-001  
  745.50  2.0964E-001  
  746.00  2.0919E-001  
  746.50  2.0921E-001  
  747.00  2.0923E-001  
  747.50  2.0984E-001  
  748.00  2.1088E-001  
  748.50  2.1154E-001  
  749.00  2.1218E-001  
  749.50  2.1344E-001  
  750.00  2.1496E-001  
  750.50  2.1689E-001  
  751.00  2.1814E-001  
  751.50  2.1843E-001  
  752.00  2.1852E-001  
  752.50  2.2006E-001  
  753.00  2.2127E-001  
  753.50  2.2168E-001  
  754.00  2.2159E-001  
  754.50  2.2147E-001  
  755.00  2.2131E-001  
  755.50  2.2164E-001  
  756.00  2.2268E-001  
  756.50  2.2326E-001  
  757.00  2.2402E-001  
  757.50  2.2401E-001  
  758.00  2.2400E-001  
  758.50  2.2435E-001  
  759.00  2.2609E-001  
  759.50  2.2777E-001  
  760.00  2.2832E-001  
  760.50  2.2788E-001  
  761.00  2.2809E-001  
  761.50  2.2948E-001  
  762.00  2.3099E-001  
  762.50  2.3159E-001  
  763.00  2.3159E-001  
  763.50  2.3057E-001  
  764.00  2.3058E-001  
  764.50  2.3064E-001  
  765.00  2.3188E-001  
  765.50  2.3402E-001  
  766.00  2.3592E-001  
  766.50  2.3631E-001  
  767.00  2.3752E-001  
  767.50  2.3921E-001  
  768.00  2.4012E-001  
  768.50  2.3921E-001  
  769.00  2.3876E-001  
  769.50  2.3957E-001  
  770.00  2.4021E-001  
  770.50  2.4019E-001  
  771.00  2.3979E-001  
  771.50  2.4054E-001  
  772.00  2.4152E-001  
  772.50  2.4326E-001  
  773.00  2.4402E-001  
  773.50  2.4487E-001  
  774.00  2.4584E-001  
  774.50  2.4700E-001  
  775.00  2.4650E-001  
  775.50  2.4641E-001  
  776.00  2.4620E-001  
  776.50  2.4657E-001  
  777.00  2.4614E-001  
  777.50  2.4681E-001  
  778.00  2.4747E-001  
  778.50  2.4828E-001  
  779.00  2.4845E-001  
  779.50  2.4973E-001  
  780.00  2.5192E-001  
  780.50  2.5313E-001  
  781.00  2.5360E-001  
  781.50  2.5340E-001  
  782.00  2.5352E-001  
  782.50  2.5465E-001  
  783.00  2.5601E-001  
  783.50  2.5789E-001  
  784.00  2.5804E-001  
  784.50  2.5759E-001  
  785.00  2.5764E-001  
  785.50  2.5802E-001  
  786.00  2.5885E-001  
  786.50  2.6110E-001  
  787.00  2.6331E-001  
  787.50  2.6338E-001  
  788.00  2.6483E-001  
  788.50  2.6587E-001  
  789.00  2.6561E-001  
  789.50  2.6522E-001  
  790.00  2.6643E-001  
  790.50  2.6731E-001  
  791.00  2.6663E-001  
  791.50  2.6737E-001  
  792.00  2.6832E-001  
  792.50  2.6852E-001  
  793.00  2.6835E-001  
  793.50  2.6892E-001  
  794.00  2.6984E-001  
  794.50  2.7023E-001  
  795.00  2.7249E-001  
  795.50  2.7322E-001  
  796.00  2.7350E-001  
  796.50  2.7367E-001  
  797.00  2.7588E-001  
  797.50  2.7742E-001  
  798.00  2.7634E-001  
  798.50  2.7623E-001  
  799.00  2.7797E-001  
  799.50  2.7824E-001  
  800.00  2.7698E-001  
  800.50  2.7622E-001  
  801.00  2.7637E-001  
  801.50  2.7816E-001  
  802.00  2.7975E-001  
  802.50  2.8014E-001  
  803.00  2.8125E-001  
  803.50  2.8322E-001  
  804.00  2.8383E-001  
  804.50  2.8511E-001  
  805.00  2.8747E-001  
  805.50  2.8721E-001  
  806.00  2.8651E-001  
  806.50  2.8584E-001  
  807.00  2.8673E-001  
  807.50  2.8677E-001  
  808.00  2.8653E-001  
  808.50  2.8756E-001  
  809.00  2.8946E-001  
  809.50  2.9071E-001  
  810.00  2.9098E-001  
  810.50  2.9108E-001  
  811.00  2.9183E-001  
  811.50  2.9268E-001  
  812.00  2.9305E-001  
  812.50  2.9391E-001  
  813.00  2.9614E-001  
  813.50  2.9760E-001  
  814.00  2.9719E-001  
  814.50  2.9732E-001  
  815.00  3.0040E-001  
  815.50  3.0313E-001  
  816.00  3.0349E-001  
  816.50  3.0141E-001  
  817.00  2.9975E-001  
  817.50  3.0178E-001  
  818.00  3.0486E-001  
  818.50  3.0364E-001  
  819.00  3.0148E-001  
  819.50  3.0364E-001  
  820.00  3.0640E-001  
  820.50  3.0672E-001  
  821.00  3.0469E-001  
  821.50  3.0593E-001  
  822.00  3.0671E-001  
  822.50  3.0701E-001  
  823.00  3.0814E-001  
  823.50  3.1000E-001  
  824.00  3.1135E-001  
  824.50  3.1183E-001  
  825.00  3.1307E-001  
  825.50  3.1244E-001  
  826.00  3.1406E-001  
  826.50  3.1519E-001  
  827.00  3.1376E-001  
  827.50  3.1215E-001  
  828.00  3.1349E-001  
  828.50  3.1465E-001  
  829.00  3.1478E-001  
  829.50  3.1516E-001  
  830.00  3.1642E-001  
  830.50  3.1859E-001  
  831.00  3.2143E-001  
  831.50  3.2313E-001  
  832.00  3.2330E-001  
  832.50  3.2312E-001  
  833.00  3.2378E-001  
  833.50  3.2311E-001  
  834.00  3.2366E-001  
  834.50  3.2648E-001  
  835.00  3.2791E-001  
  835.50  3.2806E-001  
  836.00  3.2927E-001  
  836.50  3.3020E-001  
  837.00  3.2960E-001  
  837.50  3.2891E-001  
  838.00  3.2839E-001  
  838.50  3.3046E-001  
  839.00  3.3234E-001  
  839.50  3.3302E-001  
  840.00  3.3441E-001  
  840.50  3.3597E-001  
  841.00  3.3717E-001  
  841.50  3.3764E-001  
  842.00  3.3727E-001  
  842.50  3.3553E-001  
  843.00  3.3356E-001  
  843.50  3.3255E-001  
  844.00  3.3458E-001  
  844.50  3.3708E-001  
  845.00  3.4070E-001  
  845.50  3.4266E-001  
  846.00  3.4496E-001  
  846.50  3.4695E-001  
  847.00  3.4658E-001  
  847.50  3.4586E-001  
  848.00  3.4261E-001  
  848.50  3.4062E-001  
  849.00  3.4319E-001  
  849.50  3.4614E-001  
  850.00  3.4756E-001  
  850.50  3.4987E-001  
  851.00  3.5250E-001  
  851.50  3.5441E-001  
  852.00  3.5289E-001  
  852.50  3.5310E-001  
  853.00  3.5303E-001  
  853.50  3.5241E-001  
  854.00  3.5218E-001  
  854.50  3.5184E-001  
  855.00  3.5324E-001  
  855.50  3.5821E-001  
  856.00  3.6102E-001  
  856.50  3.6219E-001  
  857.00  3.6307E-001  
  857.50  3.6312E-001  
  858.00  3.6086E-001  
  858.50  3.6098E-001  
  859.00  3.5809E-001  
  859.50  3.5763E-001  
  860.00  3.6372E-001  
  860.50  3.6765E-001  
  861.00  3.6624E-001  
  861.50  3.6525E-001  
  862.00  3.6374E-001  
  862.50  3.6456E-001  
  863.00  3.6914E-001  
  863.50  3.6915E-001  
  864.00  3.6745E-001  
  864.50  3.6773E-001  
  865.00  3.6708E-001  
  865.50  3.6959E-001  
  866.00  3.7385E-001  
  866.50  3.7615E-001  
  867.00  3.7278E-001  
  867.50  3.7230E-001  
  868.00  3.7596E-001  
  868.50  3.7816E-001  
  869.00  3.7887E-001  
  869.50  3.8127E-001  
  870.00  3.8253E-001  
  870.50  3.8135E-001  
  871.00  3.8091E-001  
  871.50  3.8098E-001  
  872.00  3.8178E-001  
  872.50  3.8505E-001  
  873.00  3.8814E-001  
  873.50  3.8737E-001  
  874.00  3.8598E-001  
  874.50  3.8628E-001  
  875.00  3.8924E-001  
  875.50  3.8724E-001  
  876.00  3.8140E-001  
  876.50  3.7991E-001  
  877.00  3.8320E-001  
  877.50  3.8828E-001  
  878.00  3.9117E-001  
  878.50  3.9448E-001  
  879.00  3.9696E-001  
  879.50  3.9729E-001  
  880.00  3.9408E-001  
  880.50  3.9249E-001  
  881.00  3.9357E-001  
  881.50  3.9725E-001  
  882.00  3.9528E-001  
  882.50  3.9409E-001  
  883.00  3.9919E-001  
  883.50  4.0444E-001  
  884.00  4.0628E-001  
  884.50  4.0815E-001  
  885.00  4.0621E-001  
  885.50  4.0290E-001  
  886.00  4.0165E-001  
  886.50  4.0325E-001  
  887.00  4.0210E-001  
  887.50  4.0169E-001  
  888.00  4.0583E-001  
  888.50  4.1069E-001  
  889.00  4.1054E-001  
  889.50  4.1277E-001  
  890.00  4.1372E-001  
  890.50  4.1350E-001  
  891.00  4.1242E-001  
  891.50  4.1146E-001  
  892.00  4.1291E-001  
  892.50  4.1645E-001  
  893.00  4.1475E-001  
  893.50  4.1567E-001  
  894.00  4.1922E-001  
  894.50  4.2030E-001  
  895.00  4.2273E-001  
  895.50  4.2257E-001  
  896.00  4.1841E-001  
  896.50  4.1851E-001  
  897.00  4.2144E-001  
  897.50  4.2063E-001  
  898.00  4.2247E-001  
  898.50  4.2669E-001  
  899.00  4.2897E-001  
  899.50  8.4399E-003  
