
# From lspdd.org
# 
# Name: DEL Greatwall-Ledlight A19 Domestique
# Indice spectral Valeur 
# MSI 0.14 
# SLI 0.32 
# IPI 0.63 
# Pourcentage de bleu 8.9 
# Caractéristique Valeur 
# CCT calculée (K) 2104 
# CCT du fabricant (K) 2200 
# Tension (V) 277 
# Puissance (W) 5.0 
# Efficacité lumineuse (Lum/W) ND 
#
# Image: '/app/system/img_1s/2734/medium_image1.JPG?1612236480'
# 

  273.00  0.0000E+000  
  273.50  0.0000E+000  
  274.00  0.0000E+000  
  274.50  0.0000E+000  
  275.00  0.0000E+000  
  275.50  0.0000E+000  
  276.00  0.0000E+000  
  276.50  0.0000E+000  
  277.00  0.0000E+000  
  277.50  0.0000E+000  
  278.00  0.0000E+000  
  278.50  0.0000E+000  
  279.00  0.0000E+000  
  279.50  0.0000E+000  
  280.00  0.0000E+000  
  280.50  0.0000E+000  
  281.00  0.0000E+000  
  281.50  0.0000E+000  
  282.00  0.0000E+000  
  282.50  0.0000E+000  
  283.00  0.0000E+000  
  283.50  0.0000E+000  
  284.00  0.0000E+000  
  284.50  0.0000E+000  
  285.00  0.0000E+000  
  285.50  0.0000E+000  
  286.00  0.0000E+000  
  286.50  0.0000E+000  
  287.00  0.0000E+000  
  287.50  0.0000E+000  
  288.00  0.0000E+000  
  288.50  0.0000E+000  
  289.00  0.0000E+000  
  289.50  0.0000E+000  
  290.00  0.0000E+000  
  290.50  0.0000E+000  
  291.00  0.0000E+000  
  291.50  0.0000E+000  
  292.00  0.0000E+000  
  292.50  0.0000E+000  
  293.00  0.0000E+000  
  293.50  0.0000E+000  
  294.00  0.0000E+000  
  294.50  0.0000E+000  
  295.00  0.0000E+000  
  295.50  0.0000E+000  
  296.00  0.0000E+000  
  296.50  0.0000E+000  
  297.00  0.0000E+000  
  297.50  0.0000E+000  
  298.00  0.0000E+000  
  298.50  0.0000E+000  
  299.00  0.0000E+000  
  299.50  0.0000E+000  
  300.00  1.0570E-004  
  300.50  2.5556E-004  
  301.00  1.9110E-004  
  301.50  6.8323E-005  
  302.00  0.0000E+000  
  302.50  0.0000E+000  
  303.00  0.0000E+000  
  303.50  7.7533E-006  
  304.00  2.6031E-004  
  304.50  6.5100E-004  
  305.00  8.4421E-004  
  305.50  8.7644E-004  
  306.00  6.9677E-004  
  306.50  4.0217E-004  
  307.00  3.0310E-004  
  307.50  6.1990E-005  
  308.00  0.0000E+000  
  308.50  0.0000E+000  
  309.00  0.0000E+000  
  309.50  1.6911E-005  
  310.00  1.3431E-004  
  310.50  1.7763E-004  
  311.00  3.8180E-004  
  311.50  6.0420E-004  
  312.00  6.2208E-004  
  312.50  9.1466E-004  
  313.00  9.8466E-004  
  313.50  9.0278E-004  
  314.00  9.9258E-004  
  314.50  8.9231E-004  
  315.00  7.7416E-004  
  315.50  7.9502E-004  
  316.00  8.1280E-004  
  316.50  6.9150E-004  
  317.00  4.0537E-004  
  317.50  2.6620E-004  
  318.00  4.1231E-004  
  318.50  4.4304E-004  
  319.00  5.5857E-004  
  319.50  4.2717E-004  
  320.00  7.5586E-005  
  320.50  1.7906E-004  
  321.00  2.9195E-004  
  321.50  6.5697E-004  
  322.00  9.2980E-004  
  322.50  1.0647E-003  
  323.00  1.1042E-003  
  323.50  7.5376E-004  
  324.00  4.6936E-004  
  324.50  3.4774E-004  
  325.00  3.8006E-004  
  325.50  4.5663E-004  
  326.00  3.2293E-004  
  326.50  2.4439E-004  
  327.00  1.0885E-004  
  327.50  1.7495E-004  
  328.00  4.4799E-004  
  328.50  4.6902E-004  
  329.00  4.0132E-004  
  329.50  4.4445E-004  
  330.00  3.4054E-004  
  330.50  2.8784E-004  
  331.00  3.7710E-004  
  331.50  1.3675E-004  
  332.00  7.6449E-005  
  332.50  1.1367E-005  
  333.00  2.9023E-005  
  333.50  6.8302E-005  
  334.00  7.2610E-006  
  334.50  0.0000E+000  
  335.00  0.0000E+000  
  335.50  0.0000E+000  
  336.00  0.0000E+000  
  336.50  1.1485E-005  
  337.00  1.4297E-004  
  337.50  2.7548E-004  
  338.00  3.7324E-004  
  338.50  1.9475E-004  
  339.00  3.6818E-006  
  339.50  6.7874E-006  
  340.00  8.9434E-005  
  340.50  1.7372E-004  
  341.00  3.3792E-004  
  341.50  2.0346E-004  
  342.00  1.3845E-004  
  342.50  3.1021E-004  
  343.00  5.4996E-004  
  343.50  1.0334E-003  
  344.00  1.3516E-003  
  344.50  1.2717E-003  
  345.00  9.7809E-004  
  345.50  4.1344E-004  
  346.00  8.6778E-005  
  346.50  0.0000E+000  
  347.00  2.4310E-004  
  347.50  6.0054E-004  
  348.00  8.7641E-004  
  348.50  8.6621E-004  
  349.00  9.8557E-004  
  349.50  1.1603E-003  
  350.00  1.3315E-003  
  350.50  1.2593E-003  
  351.00  7.1065E-004  
  351.50  5.1515E-004  
  352.00  4.5352E-004  
  352.50  6.0174E-004  
  353.00  9.4218E-004  
  353.50  7.8441E-004  
  354.00  4.9327E-004  
  354.50  1.8292E-004  
  355.00  6.3786E-005  
  355.50  1.6897E-005  
  356.00  3.0552E-004  
  356.50  2.4888E-004  
  357.00  8.8409E-005  
  357.50  1.1350E-004  
  358.00  7.6682E-005  
  358.50  1.8488E-004  
  359.00  3.6644E-004  
  359.50  3.2942E-004  
  360.00  4.3659E-004  
  360.50  4.7819E-004  
  361.00  3.7222E-004  
  361.50  2.0152E-004  
  362.00  6.5498E-005  
  362.50  1.7841E-004  
  363.00  3.1138E-004  
  363.50  3.4483E-004  
  364.00  2.4448E-004  
  364.50  2.6461E-004  
  365.00  4.9918E-004  
  365.50  5.6725E-004  
  366.00  5.4495E-004  
  366.50  3.7895E-004  
  367.00  3.0984E-004  
  367.50  4.4071E-004  
  368.00  6.1128E-004  
  368.50  8.8427E-004  
  369.00  8.7297E-004  
  369.50  9.1635E-004  
  370.00  8.0857E-004  
  370.50  4.0370E-004  
  371.00  3.2532E-004  
  371.50  2.8064E-004  
  372.00  4.4513E-004  
  372.50  9.2535E-004  
  373.00  1.1968E-003  
  373.50  1.3578E-003  
  374.00  1.3507E-003  
  374.50  9.3380E-004  
  375.00  6.0911E-004  
  375.50  3.5231E-004  
  376.00  3.2498E-004  
  376.50  2.7318E-004  
  377.00  5.2809E-004  
  377.50  6.6891E-004  
  378.00  7.7360E-004  
  378.50  8.4969E-004  
  379.00  5.1045E-004  
  379.50  3.7304E-004  
  380.00  3.1657E-004  
  380.50  2.1280E-004  
  381.00  2.7530E-004  
  381.50  4.2637E-004  
  382.00  6.4874E-004  
  382.50  7.0339E-004  
  383.00  7.2361E-004  
  383.50  5.3682E-004  
  384.00  2.9861E-004  
  384.50  2.2009E-004  
  385.00  9.3788E-005  
  385.50  8.7046E-005  
  386.00  1.3447E-004  
  386.50  1.3448E-004  
  387.00  1.3568E-004  
  387.50  1.3876E-004  
  388.00  1.3764E-004  
  388.50  2.2645E-004  
  389.00  2.7859E-004  
  389.50  4.7356E-004  
  390.00  4.9605E-004  
  390.50  5.2005E-004  
  391.00  3.9369E-004  
  391.50  3.3531E-004  
  392.00  2.9317E-004  
  392.50  3.9616E-004  
  393.00  5.8611E-004  
  393.50  5.4869E-004  
  394.00  4.1644E-004  
  394.50  3.1993E-004  
  395.00  1.9069E-004  
  395.50  2.4678E-004  
  396.00  4.8523E-004  
  396.50  6.2932E-004  
  397.00  7.6393E-004  
  397.50  8.7454E-004  
  398.00  7.2308E-004  
  398.50  7.3620E-004  
  399.00  8.2474E-004  
  399.50  6.8931E-004  
  400.00  4.7367E-004  
  400.50  2.3201E-004  
  401.00  2.7112E-004  
  401.50  4.4299E-004  
  402.00  6.3524E-004  
  402.50  7.3979E-004  
  403.00  8.7134E-004  
  403.50  1.0548E-003  
  404.00  1.0988E-003  
  404.50  1.0011E-003  
  405.00  6.9391E-004  
  405.50  5.0279E-004  
  406.00  4.8738E-004  
  406.50  5.2784E-004  
  407.00  6.1864E-004  
  407.50  7.7453E-004  
  408.00  8.9028E-004  
  408.50  1.0171E-003  
  409.00  1.0253E-003  
  409.50  1.1082E-003  
  410.00  1.2087E-003  
  410.50  1.3009E-003  
  411.00  1.3007E-003  
  411.50  1.2335E-003  
  412.00  1.2115E-003  
  412.50  1.1408E-003  
  413.00  1.0514E-003  
  413.50  9.2924E-004  
  414.00  9.6259E-004  
  414.50  1.0666E-003  
  415.00  1.1787E-003  
  415.50  1.4313E-003  
  416.00  1.3145E-003  
  416.50  1.4257E-003  
  417.00  1.5466E-003  
  417.50  1.7703E-003  
  418.00  2.2132E-003  
  418.50  2.3444E-003  
  419.00  2.1636E-003  
  419.50  1.9628E-003  
  420.00  1.9159E-003  
  420.50  2.1038E-003  
  421.00  2.5259E-003  
  421.50  2.7744E-003  
  422.00  2.9141E-003  
  422.50  3.0266E-003  
  423.00  3.1005E-003  
  423.50  3.0494E-003  
  424.00  2.9907E-003  
  424.50  2.8664E-003  
  425.00  2.9188E-003  
  425.50  3.1499E-003  
  426.00  3.4144E-003  
  426.50  3.8385E-003  
  427.00  4.2558E-003  
  427.50  4.6659E-003  
  428.00  5.0770E-003  
  428.50  5.2794E-003  
  429.00  5.4401E-003  
  429.50  5.6180E-003  
  430.00  5.8926E-003  
  430.50  6.1521E-003  
  431.00  6.2711E-003  
  431.50  6.3765E-003  
  432.00  6.4617E-003  
  432.50  6.7410E-003  
  433.00  7.1135E-003  
  433.50  7.5660E-003  
  434.00  8.1918E-003  
  434.50  8.6037E-003  
  435.00  9.1060E-003  
  435.50  9.3802E-003  
  436.00  9.5164E-003  
  436.50  9.5951E-003  
  437.00  9.8642E-003  
  437.50  1.0295E-002  
  438.00  1.0992E-002  
  438.50  1.1636E-002  
  439.00  1.2576E-002  
  439.50  1.3335E-002  
  440.00  1.3971E-002  
  440.50  1.4525E-002  
  441.00  1.4983E-002  
  441.50  1.5835E-002  
  442.00  1.6903E-002  
  442.50  1.8080E-002  
  443.00  1.9266E-002  
  443.50  2.0285E-002  
  444.00  2.0921E-002  
  444.50  2.1393E-002  
  445.00  2.1999E-002  
  445.50  2.2924E-002  
  446.00  2.3922E-002  
  446.50  2.4712E-002  
  447.00  2.5228E-002  
  447.50  2.5818E-002  
  448.00  2.6562E-002  
  448.50  2.7458E-002  
  449.00  2.8332E-002  
  449.50  2.8977E-002  
  450.00  2.9045E-002  
  450.50  2.8653E-002  
  451.00  2.8338E-002  
  451.50  2.8213E-002  
  452.00  2.8386E-002  
  452.50  2.8320E-002  
  453.00  2.7993E-002  
  453.50  2.7245E-002  
  454.00  2.6413E-002  
  454.50  2.5633E-002  
  455.00  2.5217E-002  
  455.50  2.4743E-002  
  456.00  2.4090E-002  
  456.50  2.3359E-002  
  457.00  2.2477E-002  
  457.50  2.1766E-002  
  458.00  2.1223E-002  
  458.50  2.0831E-002  
  459.00  2.0522E-002  
  459.50  2.0058E-002  
  460.00  1.9327E-002  
  460.50  1.8679E-002  
  461.00  1.8421E-002  
  461.50  1.8642E-002  
  462.00  1.8952E-002  
  462.50  1.9197E-002  
  463.00  1.9193E-002  
  463.50  1.8848E-002  
  464.00  1.8693E-002  
  464.50  1.8423E-002  
  465.00  1.8358E-002  
  465.50  1.8236E-002  
  466.00  1.8067E-002  
  466.50  1.7776E-002  
  467.00  1.7642E-002  
  467.50  1.7397E-002  
  468.00  1.7373E-002  
  468.50  1.7385E-002  
  469.00  1.7482E-002  
  469.50  1.7565E-002  
  470.00  1.7227E-002  
  470.50  1.6927E-002  
  471.00  1.6559E-002  
  471.50  1.6160E-002  
  472.00  1.5842E-002  
  472.50  1.5523E-002  
  473.00  1.5319E-002  
  473.50  1.5403E-002  
  474.00  1.5299E-002  
  474.50  1.5183E-002  
  475.00  1.5009E-002  
  475.50  1.4886E-002  
  476.00  1.4979E-002  
  476.50  1.5117E-002  
  477.00  1.5298E-002  
  477.50  1.5286E-002  
  478.00  1.5159E-002  
  478.50  1.5163E-002  
  479.00  1.5298E-002  
  479.50  1.5538E-002  
  480.00  1.5794E-002  
  480.50  1.5963E-002  
  481.00  1.6156E-002  
  481.50  1.6520E-002  
  482.00  1.6715E-002  
  482.50  1.6945E-002  
  483.00  1.7274E-002  
  483.50  1.7444E-002  
  484.00  1.7785E-002  
  484.50  1.8084E-002  
  485.00  1.8299E-002  
  485.50  1.8636E-002  
  486.00  1.8877E-002  
  486.50  1.9239E-002  
  487.00  1.9552E-002  
  487.50  1.9818E-002  
  488.00  2.0073E-002  
  488.50  2.0537E-002  
  489.00  2.1163E-002  
  489.50  2.1556E-002  
  490.00  2.1895E-002  
  490.50  2.2152E-002  
  491.00  2.2799E-002  
  491.50  2.3520E-002  
  492.00  2.4105E-002  
  492.50  2.4566E-002  
  493.00  2.4939E-002  
  493.50  2.5487E-002  
  494.00  2.6038E-002  
  494.50  2.6582E-002  
  495.00  2.7025E-002  
  495.50  2.7575E-002  
  496.00  2.8182E-002  
  496.50  2.8800E-002  
  497.00  2.9535E-002  
  497.50  3.0265E-002  
  498.00  3.1169E-002  
  498.50  3.1980E-002  
  499.00  3.2609E-002  
  499.50  3.3005E-002  
  500.00  3.3336E-002  
  500.50  3.3698E-002  
  501.00  3.4234E-002  
  501.50  3.5009E-002  
  502.00  3.5831E-002  
  502.50  3.6694E-002  
  503.00  3.7515E-002  
  503.50  3.8284E-002  
  504.00  3.8954E-002  
  504.50  3.9446E-002  
  505.00  3.9978E-002  
  505.50  4.0446E-002  
  506.00  4.1001E-002  
  506.50  4.1458E-002  
  507.00  4.2174E-002  
  507.50  4.2936E-002  
  508.00  4.3518E-002  
  508.50  4.4103E-002  
  509.00  4.4622E-002  
  509.50  4.5140E-002  
  510.00  4.5851E-002  
  510.50  4.6571E-002  
  511.00  4.7452E-002  
  511.50  4.8120E-002  
  512.00  4.8583E-002  
  512.50  4.9002E-002  
  513.00  4.9655E-002  
  513.50  5.0247E-002  
  514.00  5.0868E-002  
  514.50  5.1337E-002  
  515.00  5.1957E-002  
  515.50  5.2738E-002  
  516.00  5.3544E-002  
  516.50  5.4224E-002  
  517.00  5.4779E-002  
  517.50  5.5126E-002  
  518.00  5.5571E-002  
  518.50  5.6219E-002  
  519.00  5.6955E-002  
  519.50  5.7685E-002  
  520.00  5.8422E-002  
  520.50  5.9044E-002  
  521.00  5.9736E-002  
  521.50  6.0266E-002  
  522.00  6.0776E-002  
  522.50  6.1261E-002  
  523.00  6.1861E-002  
  523.50  6.2645E-002  
  524.00  6.3294E-002  
  524.50  6.4054E-002  
  525.00  6.4721E-002  
  525.50  6.5320E-002  
  526.00  6.5902E-002  
  526.50  6.6374E-002  
  527.00  6.7017E-002  
  527.50  6.7773E-002  
  528.00  6.8490E-002  
  528.50  6.9160E-002  
  529.00  6.9714E-002  
  529.50  7.0375E-002  
  530.00  7.1186E-002  
  530.50  7.2016E-002  
  531.00  7.2824E-002  
  531.50  7.3444E-002  
  532.00  7.4208E-002  
  532.50  7.4925E-002  
  533.00  7.5737E-002  
  533.50  7.6513E-002  
  534.00  7.7241E-002  
  534.50  7.8189E-002  
  535.00  7.9013E-002  
  535.50  8.0104E-002  
  536.00  8.1268E-002  
  536.50  8.2401E-002  
  537.00  8.3284E-002  
  537.50  8.3786E-002  
  538.00  8.4333E-002  
  538.50  8.4979E-002  
  539.00  8.5966E-002  
  539.50  8.6945E-002  
  540.00  8.8061E-002  
  540.50  8.9354E-002  
  541.00  9.0608E-002  
  541.50  9.1642E-002  
  542.00  9.2600E-002  
  542.50  9.3417E-002  
  543.00  9.4678E-002  
  543.50  9.5818E-002  
  544.00  9.7038E-002  
  544.50  9.8305E-002  
  545.00  9.9782E-002  
  545.50  1.0121E-001  
  546.00  1.0220E-001  
  546.50  1.0327E-001  
  547.00  1.0451E-001  
  547.50  1.0585E-001  
  548.00  1.0713E-001  
  548.50  1.0842E-001  
  549.00  1.1015E-001  
  549.50  1.1185E-001  
  550.00  1.1318E-001  
  550.50  1.1419E-001  
  551.00  1.1535E-001  
  551.50  1.1685E-001  
  552.00  1.1850E-001  
  552.50  1.2028E-001  
  553.00  1.2196E-001  
  553.50  1.2392E-001  
  554.00  1.2566E-001  
  554.50  1.2740E-001  
  555.00  1.2892E-001  
  555.50  1.3070E-001  
  556.00  1.3273E-001  
  556.50  1.3463E-001  
  557.00  1.3661E-001  
  557.50  1.3835E-001  
  558.00  1.4015E-001  
  558.50  1.4202E-001  
  559.00  1.4389E-001  
  559.50  1.4583E-001  
  560.00  1.4803E-001  
  560.50  1.4984E-001  
  561.00  1.5221E-001  
  561.50  1.5453E-001  
  562.00  1.5671E-001  
  562.50  1.5921E-001  
  563.00  1.6126E-001  
  563.50  1.6377E-001  
  564.00  1.6608E-001  
  564.50  1.6816E-001  
  565.00  1.6995E-001  
  565.50  1.7188E-001  
  566.00  1.7390E-001  
  566.50  1.7617E-001  
  567.00  1.7882E-001  
  567.50  1.8146E-001  
  568.00  1.8442E-001  
  568.50  1.8719E-001  
  569.00  1.8981E-001  
  569.50  1.9195E-001  
  570.00  1.9388E-001  
  570.50  1.9576E-001  
  571.00  1.9801E-001  
  571.50  2.0032E-001  
  572.00  2.0297E-001  
  572.50  2.0596E-001  
  573.00  2.0925E-001  
  573.50  2.1221E-001  
  574.00  2.1439E-001  
  574.50  2.1644E-001  
  575.00  2.1880E-001  
  575.50  2.2153E-001  
  576.00  2.2442E-001  
  576.50  2.2711E-001  
  577.00  2.2951E-001  
  577.50  2.3165E-001  
  578.00  2.3359E-001  
  578.50  2.3609E-001  
  579.00  2.3830E-001  
  579.50  2.4059E-001  
  580.00  2.4321E-001  
  580.50  2.4601E-001  
  581.00  2.4916E-001  
  581.50  2.5176E-001  
  582.00  2.5404E-001  
  582.50  2.5604E-001  
  583.00  2.5756E-001  
  583.50  2.5911E-001  
  584.00  2.6091E-001  
  584.50  2.6312E-001  
  585.00  2.6563E-001  
  585.50  2.6778E-001  
  586.00  2.7039E-001  
  586.50  2.7263E-001  
  587.00  2.7496E-001  
  587.50  2.7716E-001  
  588.00  2.7925E-001  
  588.50  2.8149E-001  
  589.00  2.8256E-001  
  589.50  2.8364E-001  
  590.00  2.8483E-001  
  590.50  2.8707E-001  
  591.00  2.8963E-001  
  591.50  2.9205E-001  
  592.00  2.9394E-001  
  592.50  2.9507E-001  
  593.00  2.9595E-001  
  593.50  2.9718E-001  
  594.00  2.9876E-001  
  594.50  3.0059E-001  
  595.00  3.0185E-001  
  595.50  3.0299E-001  
  596.00  3.0403E-001  
  596.50  3.0461E-001  
  597.00  3.0531E-001  
  597.50  3.0568E-001  
  598.00  3.0583E-001  
  598.50  3.0584E-001  
  599.00  3.0650E-001  
  599.50  3.0791E-001  
  600.00  3.0902E-001  
  600.50  3.0979E-001  
  601.00  3.1030E-001  
  601.50  3.1037E-001  
  602.00  3.1036E-001  
  602.50  3.0999E-001  
  603.00  3.0972E-001  
  603.50  3.0919E-001  
  604.00  3.0887E-001  
  604.50  3.0901E-001  
  605.00  3.0926E-001  
  605.50  3.0912E-001  
  606.00  3.0911E-001  
  606.50  3.0943E-001  
  607.00  3.0989E-001  
  607.50  3.0996E-001  
  608.00  3.0955E-001  
  608.50  3.0881E-001  
  609.00  3.0783E-001  
  609.50  3.0682E-001  
  610.00  3.0665E-001  
  610.50  3.0621E-001  
  611.00  3.0528E-001  
  611.50  3.0392E-001  
  612.00  3.0295E-001  
  612.50  3.0248E-001  
  613.00  3.0194E-001  
  613.50  3.0118E-001  
  614.00  3.0092E-001  
  614.50  2.9980E-001  
  615.00  2.9817E-001  
  615.50  2.9592E-001  
  616.00  2.9390E-001  
  616.50  2.9270E-001  
  617.00  2.9164E-001  
  617.50  2.9102E-001  
  618.00  2.9013E-001  
  618.50  2.8878E-001  
  619.00  2.8699E-001  
  619.50  2.8511E-001  
  620.00  2.8370E-001  
  620.50  2.8210E-001  
  621.00  2.8060E-001  
  621.50  2.7836E-001  
  622.00  2.7642E-001  
  622.50  2.7427E-001  
  623.00  2.7260E-001  
  623.50  2.7068E-001  
  624.00  2.6903E-001  
  624.50  2.6721E-001  
  625.00  2.6549E-001  
  625.50  2.6393E-001  
  626.00  2.6210E-001  
  626.50  2.6036E-001  
  627.00  2.5795E-001  
  627.50  2.5547E-001  
  628.00  2.5331E-001  
  628.50  2.5151E-001  
  629.00  2.4978E-001  
  629.50  2.4808E-001  
  630.00  2.4595E-001  
  630.50  2.4387E-001  
  631.00  2.4187E-001  
  631.50  2.4052E-001  
  632.00  2.3859E-001  
  632.50  2.3632E-001  
  633.00  2.3429E-001  
  633.50  2.3269E-001  
  634.00  2.3132E-001  
  634.50  2.2855E-001  
  635.00  2.2590E-001  
  635.50  2.2343E-001  
  636.00  2.2138E-001  
  636.50  2.1926E-001  
  637.00  2.1679E-001  
  637.50  2.1466E-001  
  638.00  2.1256E-001  
  638.50  2.1053E-001  
  639.00  2.0799E-001  
  639.50  2.0549E-001  
  640.00  2.0335E-001  
  640.50  2.0139E-001  
  641.00  1.9946E-001  
  641.50  1.9770E-001  
  642.00  1.9597E-001  
  642.50  1.9410E-001  
  643.00  1.9182E-001  
  643.50  1.9005E-001  
  644.00  1.8822E-001  
  644.50  1.8578E-001  
  645.00  1.8321E-001  
  645.50  1.8059E-001  
  646.00  1.7865E-001  
  646.50  1.7630E-001  
  647.00  1.7461E-001  
  647.50  1.7295E-001  
  648.00  1.7135E-001  
  648.50  1.6913E-001  
  649.00  1.6701E-001  
  649.50  1.6521E-001  
  650.00  1.6340E-001  
  650.50  1.6185E-001  
  651.00  1.5960E-001  
  651.50  1.5742E-001  
  652.00  1.5514E-001  
  652.50  1.5302E-001  
  653.00  1.5101E-001  
  653.50  1.4895E-001  
  654.00  1.4728E-001  
  654.50  1.4560E-001  
  655.00  1.4350E-001  
  655.50  1.4098E-001  
  656.00  1.3881E-001  
  656.50  1.3731E-001  
  657.00  1.3617E-001  
  657.50  1.3452E-001  
  658.00  1.3221E-001  
  658.50  1.2986E-001  
  659.00  1.2788E-001  
  659.50  1.2637E-001  
  660.00  1.2524E-001  
  660.50  1.2374E-001  
  661.00  1.2197E-001  
  661.50  1.1992E-001  
  662.00  1.1824E-001  
  662.50  1.1679E-001  
  663.00  1.1552E-001  
  663.50  1.1398E-001  
  664.00  1.1197E-001  
  664.50  1.0985E-001  
  665.00  1.0823E-001  
  665.50  1.0688E-001  
  666.00  1.0500E-001  
  666.50  1.0307E-001  
  667.00  1.0141E-001  
  667.50  1.0003E-001  
  668.00  9.8579E-002  
  668.50  9.7022E-002  
  669.00  9.5572E-002  
  669.50  9.4047E-002  
  670.00  9.2556E-002  
  670.50  9.1745E-002  
  671.00  9.0824E-002  
  671.50  8.9158E-002  
  672.00  8.7231E-002  
  672.50  8.5481E-002  
  673.00  8.4518E-002  
  673.50  8.3294E-002  
  674.00  8.2116E-002  
  674.50  8.0772E-002  
  675.00  7.9317E-002  
  675.50  7.8062E-002  
  676.00  7.6966E-002  
  676.50  7.6068E-002  
  677.00  7.4988E-002  
  677.50  7.3965E-002  
  678.00  7.2618E-002  
  678.50  7.1557E-002  
  679.00  7.0396E-002  
  679.50  6.9453E-002  
  680.00  6.8051E-002  
  680.50  6.7065E-002  
  681.00  6.5761E-002  
  681.50  6.4561E-002  
  682.00  6.3494E-002  
  682.50  6.2874E-002  
  683.00  6.2037E-002  
  683.50  6.0723E-002  
  684.00  5.9488E-002  
  684.50  5.8662E-002  
  685.00  5.7963E-002  
  685.50  5.6882E-002  
  686.00  5.5620E-002  
  686.50  5.4470E-002  
  687.00  5.3714E-002  
  687.50  5.2924E-002  
  688.00  5.1974E-002  
  688.50  5.1111E-002  
  689.00  5.0119E-002  
  689.50  4.9457E-002  
  690.00  4.8945E-002  
  690.50  4.8507E-002  
  691.00  4.7810E-002  
  691.50  4.6970E-002  
  692.00  4.6014E-002  
  692.50  4.5059E-002  
  693.00  4.4003E-002  
  693.50  4.3109E-002  
  694.00  4.2551E-002  
  694.50  4.2137E-002  
  695.00  4.1637E-002  
  695.50  4.0920E-002  
  696.00  4.0186E-002  
  696.50  3.9263E-002  
  697.00  3.8398E-002  
  697.50  3.7603E-002  
  698.00  3.7399E-002  
  698.50  3.7028E-002  
  699.00  3.6457E-002  
  699.50  3.5514E-002  
  700.00  3.4498E-002  
  700.50  3.3754E-002  
  701.00  3.3204E-002  
  701.50  3.3206E-002  
  702.00  3.2704E-002  
  702.50  3.2147E-002  
  703.00  3.1347E-002  
  703.50  3.1335E-002  
  704.00  3.1300E-002  
  704.50  3.1175E-002  
  705.00  3.0466E-002  
  705.50  2.9545E-002  
  706.00  2.8739E-002  
  706.50  2.8329E-002  
  707.00  2.7738E-002  
  707.50  2.7359E-002  
  708.00  2.7102E-002  
  708.50  2.6984E-002  
  709.00  2.6174E-002  
  709.50  2.5426E-002  
  710.00  2.4971E-002  
  710.50  2.4862E-002  
  711.00  2.4468E-002  
  711.50  2.3862E-002  
  712.00  2.3276E-002  
  712.50  2.2679E-002  
  713.00  2.2208E-002  
  713.50  2.2115E-002  
  714.00  2.2263E-002  
  714.50  2.2033E-002  
  715.00  2.1607E-002  
  715.50  2.1197E-002  
  716.00  2.0803E-002  
  716.50  2.0084E-002  
  717.00  1.9571E-002  
  717.50  1.9401E-002  
  718.00  1.9423E-002  
  718.50  1.9048E-002  
  719.00  1.8966E-002  
  719.50  1.8637E-002  
  720.00  1.8303E-002  
  720.50  1.8065E-002  
  721.00  1.8003E-002  
  721.50  1.8158E-002  
  722.00  1.7295E-002  
  722.50  1.6378E-002  
  723.00  1.5690E-002  
  723.50  1.5698E-002  
  724.00  1.5788E-002  
  724.50  1.5526E-002  
  725.00  1.5259E-002  
  725.50  1.5016E-002  
  726.00  1.4922E-002  
  726.50  1.4726E-002  
  727.00  1.4656E-002  
  727.50  1.4416E-002  
  728.00  1.4034E-002  
  728.50  1.4037E-002  
  729.00  1.4232E-002  
  729.50  1.3644E-002  
  730.00  1.2998E-002  
  730.50  1.2604E-002  
  731.00  1.2785E-002  
  731.50  1.2567E-002  
  732.00  1.2304E-002  
  732.50  1.1650E-002  
  733.00  1.1250E-002  
  733.50  1.0893E-002  
  734.00  1.0799E-002  
  734.50  1.1002E-002  
  735.00  1.1145E-002  
  735.50  1.1072E-002  
  736.00  1.0703E-002  
  736.50  1.0750E-002  
  737.00  1.0503E-002  
  737.50  1.0397E-002  
  738.00  1.0090E-002  
  738.50  9.4220E-003  
  739.00  8.9599E-003  
  739.50  8.8736E-003  
  740.00  9.4129E-003  
  740.50  9.2681E-003  
  741.00  9.1275E-003  
  741.50  9.1494E-003  
  742.00  9.0834E-003  
  742.50  8.9984E-003  
  743.00  9.0060E-003  
  743.50  9.1619E-003  
  744.00  8.9184E-003  
  744.50  8.3753E-003  
  745.00  8.0641E-003  
  745.50  7.6998E-003  
  746.00  7.3582E-003  
  746.50  7.0331E-003  
  747.00  7.0904E-003  
  747.50  7.3597E-003  
  748.00  7.7004E-003  
  748.50  7.3887E-003  
  749.00  7.4912E-003  
  749.50  7.3577E-003  
  750.00  7.5837E-003  
  750.50  7.3988E-003  
  751.00  7.2182E-003  
  751.50  6.9434E-003  
  752.00  6.6176E-003  
  752.50  6.2453E-003  
  753.00  5.7704E-003  
  753.50  5.7212E-003  
  754.00  5.5622E-003  
  754.50  5.2772E-003  
  755.00  5.3270E-003  
  755.50  5.6022E-003  
  756.00  6.0793E-003  
  756.50  5.7953E-003  
  757.00  5.3082E-003  
  757.50  5.1205E-003  
  758.00  5.3212E-003  
  758.50  5.2859E-003  
  759.00  4.4592E-003  
  759.50  4.3328E-003  
  760.00  4.8341E-003  
  760.50  5.5452E-003  
  761.00  5.5720E-003  
  761.50  4.9113E-003  
  762.00  4.1543E-003  
  762.50  3.5942E-003  
  763.00  4.0989E-003  
  763.50  4.8405E-003  
  764.00  5.5071E-003  
  764.50  5.1484E-003  
  765.00  4.7539E-003  
  765.50  4.1437E-003  
  766.00  3.6056E-003  
  766.50  3.3861E-003  
  767.00  3.6592E-003  
  767.50  4.0211E-003  
  768.00  4.2904E-003  
  768.50  4.3949E-003  
  769.00  4.1666E-003  
  769.50  4.1114E-003  
  770.00  3.9534E-003  
  770.50  4.4083E-003  
  771.00  4.8301E-003  
  771.50  4.8017E-003  
  772.00  3.9762E-003  
  772.50  3.4207E-003  
  773.00  3.3652E-003  
  773.50  3.2292E-003  
  774.00  2.6935E-003  
  774.50  2.6936E-003  
  775.00  3.3268E-003  
  775.50  3.7509E-003  
  776.00  3.9908E-003  
  776.50  3.8230E-003  
  777.00  3.3407E-003  
  777.50  2.4947E-003  
  778.00  2.0583E-003  
  778.50  1.9449E-003  
  779.00  2.4347E-003  
  779.50  2.8932E-003  
  780.00  3.0931E-003  
  780.50  2.8440E-003  
  781.00  2.2751E-003  
  781.50  2.1872E-003  
  782.00  2.7984E-003  
  782.50  2.5272E-003  
  783.00  1.8274E-003  
  783.50  1.7213E-003  
  784.00  2.4987E-003  
  784.50  2.6354E-003  
  785.00  2.5147E-003  
  785.50  2.7593E-003  
  786.00  3.1183E-003  
  786.50  2.4956E-003  
  787.00  1.9930E-003  
  787.50  1.6808E-003  
  788.00  1.3665E-003  
  788.50  1.1460E-003  
  789.00  1.1288E-003  
  789.50  1.7919E-003  
  790.00  2.0104E-003  
  790.50  1.4489E-003  
  791.00  1.1152E-003  
  791.50  1.6938E-003  
  792.00  2.6460E-003  
  792.50  2.3094E-003  
  793.00  1.8000E-003  
  793.50  1.9411E-003  
  794.00  1.7937E-003  
  794.50  1.3180E-003  
  795.00  1.2692E-003  
  795.50  1.9064E-003  
  796.00  2.1002E-003  
  796.50  2.1120E-003  
  797.00  1.9577E-003  
  797.50  1.6063E-003  
  798.00  2.7027E-003  
  798.50  3.3484E-003  
  799.00  2.7226E-003  
  799.50  2.3193E-003  
  800.00  2.2402E-003  
  800.50  1.8495E-003  
  801.00  1.6129E-003  
  801.50  1.5051E-003  
  802.00  1.8557E-003  
  802.50  1.6815E-003  
  803.00  9.4965E-004  
  803.50  1.0565E-003  
  804.00  2.0965E-003  
  804.50  1.9128E-003  
  805.00  4.8644E-004  
  805.50  0.0000E+000  
  806.00  2.2402E-004  
  806.50  4.8352E-004  
  807.00  3.7907E-004  
  807.50  5.6324E-004  
  808.00  1.2603E-003  
  808.50  1.9026E-003  
  809.00  2.1400E-003  
  809.50  1.7165E-003  
  810.00  1.3200E-003  
  810.50  1.0612E-003  
  811.00  1.3790E-003  
  811.50  1.0727E-003  
  812.00  9.0425E-004  
  812.50  7.4738E-004  
  813.00  1.1288E-003  
  813.50  2.3683E-003  
  814.00  3.1793E-003  
  814.50  2.3263E-003  
  815.00  1.0761E-003  
  815.50  3.8076E-004  
  816.00  1.5130E-003  
  816.50  2.2730E-003  
  817.00  2.2099E-003  
  817.50  2.2466E-003  
  818.00  2.2015E-003  
  818.50  3.1180E-003  
  819.00  3.8448E-003  
  819.50  3.0181E-003  
  820.00  2.0819E-003  
  820.50  2.4038E-003  
  821.00  1.3287E-003  
  821.50  1.9805E-005  
  822.00  0.0000E+000  
  822.50  5.4645E-004  
  823.00  1.0461E-003  
  823.50  1.4177E-003  
  824.00  1.0715E-003  
  824.50  1.9579E-003  
  825.00  2.1516E-003  
  825.50  2.2560E-003  
  826.00  2.2206E-003  
  826.50  1.7963E-003  
  827.00  2.8863E-003  
  827.50  1.8420E-003  
  828.00  1.6839E-004  
  828.50  0.0000E+000  
  829.00  0.0000E+000  
  829.50  5.8101E-004  
  830.00  5.5610E-004  
  830.50  1.4667E-003  
  831.00  1.9390E-003  
  831.50  1.9338E-003  
  832.00  1.0932E-003  
  832.50  8.6178E-004  
  833.00  7.9156E-004  
  833.50  9.4856E-004  
  834.00  1.6876E-003  
  834.50  1.0088E-003  
  835.00  5.0382E-004  
  835.50  6.3361E-004  
  836.00  1.5260E-003  
  836.50  2.2950E-003  
  837.00  2.0994E-003  
  837.50  2.6563E-003  
  838.00  2.5729E-003  
  838.50  2.9344E-003  
  839.00  1.9688E-003  
  839.50  8.0515E-004  
  840.00  5.4582E-005  
  840.50  8.7730E-004  
  841.00  1.2759E-003  
  841.50  0.0000E+000  
  842.00  0.0000E+000  
  842.50  0.0000E+000  
  843.00  0.0000E+000  
  843.50  0.0000E+000  
  844.00  0.0000E+000  
  844.50  0.0000E+000  
  845.00  1.1323E-004  
  845.50  1.4477E-003  
  846.00  2.5677E-003  
  846.50  2.0643E-003  
  847.00  9.6034E-004  
  847.50  2.7611E-004  
  848.00  0.0000E+000  
  848.50  0.0000E+000  
  849.00  1.9779E-003  
  849.50  3.7175E-003  
  850.00  3.8079E-003  
  850.50  2.1447E-003  
  851.00  9.4609E-004  
  851.50  0.0000E+000  
  852.00  1.4612E-004  
  852.50  2.6270E-003  
  853.00  2.6544E-003  
  853.50  8.0735E-004  
  854.00  5.3312E-004  
  854.50  1.5080E-003  
  855.00  7.2942E-004  
  855.50  2.4091E-005  
  856.00  0.0000E+000  
  856.50  7.1548E-004  
  857.00  1.5931E-003  
  857.50  1.8867E-003  
  858.00  1.3477E-003  
  858.50  1.5582E-003  
  859.00  2.2596E-003  
  859.50  2.4952E-003  
  860.00  7.9671E-004  
  860.50  0.0000E+000  
  861.00  0.0000E+000  
  861.50  0.0000E+000  
  862.00  0.0000E+000  
  862.50  1.0615E-003  
  863.00  2.7769E-003  
  863.50  2.6160E-003  
  864.00  3.4209E-003  
  864.50  2.1610E-003  
  865.00  1.1703E-003  
  865.50  1.2914E-003  
  866.00  7.5543E-004  
  866.50  1.5801E-003  
  867.00  2.0958E-003  
  867.50  9.4918E-004  
  868.00  1.4908E-003  
  868.50  4.3422E-003  
  869.00  4.2472E-003  
  869.50  1.3388E-003  
  870.00  4.9992E-004  
  870.50  0.0000E+000  
  871.00  0.0000E+000  
  871.50  0.0000E+000  
  872.00  0.0000E+000  
  872.50  0.0000E+000  
  873.00  0.0000E+000  
  873.50  7.0039E-004  
  874.00  2.6393E-003  
  874.50  0.0000E+000  
  875.00  0.0000E+000  
  875.50  0.0000E+000  
  876.00  0.0000E+000  
  876.50  0.0000E+000  
  877.00  0.0000E+000  
  877.50  0.0000E+000  
  878.00  0.0000E+000  
  878.50  0.0000E+000  
  879.00  0.0000E+000  
  879.50  0.0000E+000  
  880.00  0.0000E+000  
  880.50  0.0000E+000  
  881.00  0.0000E+000  
  881.50  2.0229E-003  
  882.00  3.6083E-003  
  882.50  1.5377E-003  
  883.00  1.8944E-003  
  883.50  5.8857E-003  
  884.00  4.3823E-003  
  884.50  6.4183E-004  
  885.00  0.0000E+000  
  885.50  0.0000E+000  
  886.00  2.5350E-003  
  886.50  3.5979E-003  
  887.00  3.1327E-003  
  887.50  5.1549E-003  
  888.00  7.5062E-003  
  888.50  6.8215E-003  
  889.00  4.7059E-003  
  889.50  3.6200E-003  
  890.00  2.8825E-003  
  890.50  3.3062E-003  
  891.00  4.3120E-003  
  891.50  4.6638E-003  
  892.00  3.8002E-003  
  892.50  2.0890E-003  
  893.00  2.0046E-003  
  893.50  1.8081E-003  
  894.00  3.0561E-004  
  894.50  9.1118E-005  
  895.00  9.7698E-005  
  895.50  0.0000E+000  
  896.00  8.5139E-004  
  896.50  3.7511E-003  
  897.00  3.0555E-003  
  897.50  3.1454E-003  
  898.00  5.6482E-003  
  898.50  4.6129E-003  
  899.00  3.5368E-003  
  899.50  2.3866E-005  
