
# From lspdd.org
# 
# Name: INC Globe Half-Miror Domestique
# Indice spectral Valeur 
# MSI 0.26 
# SLI 0.46 
# IPI 1.03 
# Pourcentage de bleu 10.3 
# Caractéristique Valeur 
# CCT calculée (K) 2365 
# CCT du fabricant (K) 2500 
# Tension (V) 120 
# Puissance (W) 40.0 
# Efficacité lumineuse (Lum/W) 6.0 
#
# Image: '/app/system/img_1s/2736/medium_image1.JPG?1612236484'
# 

  273.00  0.0000E+000  
  273.50  0.0000E+000  
  274.00  0.0000E+000  
  274.50  0.0000E+000  
  275.00  0.0000E+000  
  275.50  0.0000E+000  
  276.00  0.0000E+000  
  276.50  0.0000E+000  
  277.00  0.0000E+000  
  277.50  0.0000E+000  
  278.00  0.0000E+000  
  278.50  0.0000E+000  
  279.00  0.0000E+000  
  279.50  0.0000E+000  
  280.00  0.0000E+000  
  280.50  0.0000E+000  
  281.00  0.0000E+000  
  281.50  0.0000E+000  
  282.00  0.0000E+000  
  282.50  0.0000E+000  
  283.00  0.0000E+000  
  283.50  0.0000E+000  
  284.00  0.0000E+000  
  284.50  0.0000E+000  
  285.00  0.0000E+000  
  285.50  0.0000E+000  
  286.00  0.0000E+000  
  286.50  0.0000E+000  
  287.00  0.0000E+000  
  287.50  0.0000E+000  
  288.00  0.0000E+000  
  288.50  0.0000E+000  
  289.00  0.0000E+000  
  289.50  0.0000E+000  
  290.00  0.0000E+000  
  290.50  0.0000E+000  
  291.00  0.0000E+000  
  291.50  0.0000E+000  
  292.00  0.0000E+000  
  292.50  0.0000E+000  
  293.00  0.0000E+000  
  293.50  0.0000E+000  
  294.00  0.0000E+000  
  294.50  0.0000E+000  
  295.00  0.0000E+000  
  295.50  0.0000E+000  
  296.00  0.0000E+000  
  296.50  0.0000E+000  
  297.00  0.0000E+000  
  297.50  0.0000E+000  
  298.00  0.0000E+000  
  298.50  0.0000E+000  
  299.00  0.0000E+000  
  299.50  0.0000E+000  
  300.00  1.0133E-004  
  300.50  2.8172E-004  
  301.00  3.2344E-004  
  301.50  4.2649E-004  
  302.00  2.9188E-004  
  302.50  2.0679E-004  
  303.00  2.8704E-004  
  303.50  3.4852E-004  
  304.00  3.4640E-004  
  304.50  2.8220E-004  
  305.00  8.0144E-005  
  305.50  0.0000E+000  
  306.00  0.0000E+000  
  306.50  0.0000E+000  
  307.00  0.0000E+000  
  307.50  0.0000E+000  
  308.00  0.0000E+000  
  308.50  0.0000E+000  
  309.00  5.3429E-005  
  309.50  1.8412E-004  
  310.00  2.3305E-004  
  310.50  3.8961E-004  
  311.00  3.8594E-004  
  311.50  3.5912E-004  
  312.00  4.1736E-004  
  312.50  4.9093E-004  
  313.00  6.8138E-004  
  313.50  7.8133E-004  
  314.00  7.1296E-004  
  314.50  7.0001E-004  
  315.00  6.2614E-004  
  315.50  5.1597E-004  
  316.00  3.6977E-004  
  316.50  2.6737E-004  
  317.00  3.3578E-004  
  317.50  3.1350E-004  
  318.00  2.6863E-004  
  318.50  5.6566E-005  
  319.00  0.0000E+000  
  319.50  0.0000E+000  
  320.00  0.0000E+000  
  320.50  1.3680E-004  
  321.00  2.6866E-004  
  321.50  3.1000E-004  
  322.00  4.2607E-004  
  322.50  2.9696E-004  
  323.00  5.0133E-004  
  323.50  6.7353E-004  
  324.00  7.9797E-004  
  324.50  5.3096E-004  
  325.00  2.1189E-004  
  325.50  1.8763E-004  
  326.00  2.1207E-004  
  326.50  4.7522E-004  
  327.00  6.4738E-004  
  327.50  5.3619E-004  
  328.00  4.4271E-004  
  328.50  4.3080E-004  
  329.00  3.8075E-004  
  329.50  5.5889E-004  
  330.00  9.3279E-004  
  330.50  1.0376E-003  
  331.00  1.0199E-003  
  331.50  8.7833E-004  
  332.00  6.8816E-004  
  332.50  5.1688E-004  
  333.00  3.3582E-004  
  333.50  8.5929E-005  
  334.00  6.5920E-005  
  334.50  2.9569E-004  
  335.00  4.6370E-004  
  335.50  7.2498E-004  
  336.00  7.5439E-004  
  336.50  8.2063E-004  
  337.00  9.6751E-004  
  337.50  1.0289E-003  
  338.00  1.0700E-003  
  338.50  9.2643E-004  
  339.00  8.3768E-004  
  339.50  7.2829E-004  
  340.00  6.7307E-004  
  340.50  6.3982E-004  
  341.00  5.8850E-004  
  341.50  4.9045E-004  
  342.00  6.1497E-004  
  342.50  4.8969E-004  
  343.00  5.0241E-004  
  343.50  6.5373E-004  
  344.00  6.5784E-004  
  344.50  7.0391E-004  
  345.00  5.6937E-004  
  345.50  3.7189E-004  
  346.00  3.1705E-004  
  346.50  4.0575E-004  
  347.00  4.8094E-004  
  347.50  7.2719E-004  
  348.00  9.8185E-004  
  348.50  1.1943E-003  
  349.00  1.4457E-003  
  349.50  1.2550E-003  
  350.00  1.2191E-003  
  350.50  1.2131E-003  
  351.00  1.1880E-003  
  351.50  1.4370E-003  
  352.00  1.3440E-003  
  352.50  1.1575E-003  
  353.00  1.0042E-003  
  353.50  8.6559E-004  
  354.00  8.0344E-004  
  354.50  9.4533E-004  
  355.00  1.1910E-003  
  355.50  1.3017E-003  
  356.00  1.4009E-003  
  356.50  1.5083E-003  
  357.00  1.5648E-003  
  357.50  1.6775E-003  
  358.00  1.5677E-003  
  358.50  1.4830E-003  
  359.00  1.4865E-003  
  359.50  1.4694E-003  
  360.00  1.3629E-003  
  360.50  1.2259E-003  
  361.00  1.2581E-003  
  361.50  1.2791E-003  
  362.00  1.5930E-003  
  362.50  1.7120E-003  
  363.00  1.7888E-003  
  363.50  1.9788E-003  
  364.00  2.1169E-003  
  364.50  2.3205E-003  
  365.00  2.4540E-003  
  365.50  2.4287E-003  
  366.00  2.2325E-003  
  366.50  1.8342E-003  
  367.00  1.8024E-003  
  367.50  1.9876E-003  
  368.00  2.5255E-003  
  368.50  2.8764E-003  
  369.00  2.7179E-003  
  369.50  2.5420E-003  
  370.00  2.3339E-003  
  370.50  2.3626E-003  
  371.00  2.3587E-003  
  371.50  2.0504E-003  
  372.00  2.0661E-003  
  372.50  1.9526E-003  
  373.00  2.2077E-003  
  373.50  2.4915E-003  
  374.00  2.6296E-003  
  374.50  2.8832E-003  
  375.00  2.9702E-003  
  375.50  2.8253E-003  
  376.00  2.7621E-003  
  376.50  2.8708E-003  
  377.00  3.0355E-003  
  377.50  3.1976E-003  
  378.00  3.2395E-003  
  378.50  3.0378E-003  
  379.00  2.8597E-003  
  379.50  2.9364E-003  
  380.00  2.5604E-003  
  380.50  2.2945E-003  
  381.00  2.2340E-003  
  381.50  2.2198E-003  
  382.00  2.5600E-003  
  382.50  2.9115E-003  
  383.00  3.0550E-003  
  383.50  3.0391E-003  
  384.00  3.0228E-003  
  384.50  2.7605E-003  
  385.00  2.7528E-003  
  385.50  3.1095E-003  
  386.00  3.4797E-003  
  386.50  3.8861E-003  
  387.00  3.7904E-003  
  387.50  3.3951E-003  
  388.00  3.0615E-003  
  388.50  2.9310E-003  
  389.00  2.9611E-003  
  389.50  3.0833E-003  
  390.00  3.0981E-003  
  390.50  3.2792E-003  
  391.00  3.3701E-003  
  391.50  3.2610E-003  
  392.00  3.1868E-003  
  392.50  3.0277E-003  
  393.00  3.2639E-003  
  393.50  3.4821E-003  
  394.00  3.6082E-003  
  394.50  3.6803E-003  
  395.00  3.6276E-003  
  395.50  3.6687E-003  
  396.00  3.8276E-003  
  396.50  3.9619E-003  
  397.00  3.9110E-003  
  397.50  3.7869E-003  
  398.00  3.5801E-003  
  398.50  3.4948E-003  
  399.00  3.6395E-003  
  399.50  3.8406E-003  
  400.00  4.1016E-003  
  400.50  4.3704E-003  
  401.00  4.5920E-003  
  401.50  4.6108E-003  
  402.00  4.8267E-003  
  402.50  4.8803E-003  
  403.00  4.8194E-003  
  403.50  4.9100E-003  
  404.00  4.8371E-003  
  404.50  4.9327E-003  
  405.00  4.9974E-003  
  405.50  4.9899E-003  
  406.00  4.9744E-003  
  406.50  4.9893E-003  
  407.00  5.1199E-003  
  407.50  5.2355E-003  
  408.00  5.5520E-003  
  408.50  5.8482E-003  
  409.00  6.0950E-003  
  409.50  5.9700E-003  
  410.00  5.8350E-003  
  410.50  5.7642E-003  
  411.00  6.0174E-003  
  411.50  6.2846E-003  
  412.00  6.4762E-003  
  412.50  6.5389E-003  
  413.00  6.6575E-003  
  413.50  6.4721E-003  
  414.00  6.1160E-003  
  414.50  5.7909E-003  
  415.00  5.7409E-003  
  415.50  6.1395E-003  
  416.00  6.6114E-003  
  416.50  6.7938E-003  
  417.00  6.8197E-003  
  417.50  6.7454E-003  
  418.00  6.6380E-003  
  418.50  6.5939E-003  
  419.00  6.6382E-003  
  419.50  6.7638E-003  
  420.00  6.8878E-003  
  420.50  7.0431E-003  
  421.00  7.0430E-003  
  421.50  7.0620E-003  
  422.00  7.2766E-003  
  422.50  7.4634E-003  
  423.00  7.8447E-003  
  423.50  8.0746E-003  
  424.00  8.3601E-003  
  424.50  8.3664E-003  
  425.00  8.2958E-003  
  425.50  8.1703E-003  
  426.00  8.2460E-003  
  426.50  8.2955E-003  
  427.00  8.4338E-003  
  427.50  8.5181E-003  
  428.00  8.5479E-003  
  428.50  8.9211E-003  
  429.00  8.9661E-003  
  429.50  9.0232E-003  
  430.00  9.0351E-003  
  430.50  8.8600E-003  
  431.00  8.9337E-003  
  431.50  8.9115E-003  
  432.00  8.8630E-003  
  432.50  8.9521E-003  
  433.00  9.2146E-003  
  433.50  9.5548E-003  
  434.00  9.8498E-003  
  434.50  9.9305E-003  
  435.00  1.0007E-002  
  435.50  1.0135E-002  
  436.00  1.0216E-002  
  436.50  1.0204E-002  
  437.00  1.0040E-002  
  437.50  9.8254E-003  
  438.00  9.8237E-003  
  438.50  1.0107E-002  
  439.00  1.0551E-002  
  439.50  1.0950E-002  
  440.00  1.1346E-002  
  440.50  1.1183E-002  
  441.00  1.1173E-002  
  441.50  1.1078E-002  
  442.00  1.1090E-002  
  442.50  1.1505E-002  
  443.00  1.1800E-002  
  443.50  1.2057E-002  
  444.00  1.2119E-002  
  444.50  1.1922E-002  
  445.00  1.1874E-002  
  445.50  1.2012E-002  
  446.00  1.1975E-002  
  446.50  1.2233E-002  
  447.00  1.2529E-002  
  447.50  1.2643E-002  
  448.00  1.2816E-002  
  448.50  1.2720E-002  
  449.00  1.2803E-002  
  449.50  1.2889E-002  
  450.00  1.2956E-002  
  450.50  1.3067E-002  
  451.00  1.3204E-002  
  451.50  1.3500E-002  
  452.00  1.3717E-002  
  452.50  1.3815E-002  
  453.00  1.3832E-002  
  453.50  1.3766E-002  
  454.00  1.3881E-002  
  454.50  1.4158E-002  
  455.00  1.4334E-002  
  455.50  1.4597E-002  
  456.00  1.4590E-002  
  456.50  1.4828E-002  
  457.00  1.5161E-002  
  457.50  1.5372E-002  
  458.00  1.5518E-002  
  458.50  1.5508E-002  
  459.00  1.5765E-002  
  459.50  1.5883E-002  
  460.00  1.5936E-002  
  460.50  1.5992E-002  
  461.00  1.5980E-002  
  461.50  1.6106E-002  
  462.00  1.6175E-002  
  462.50  1.6455E-002  
  463.00  1.6910E-002  
  463.50  1.7136E-002  
  464.00  1.7056E-002  
  464.50  1.6804E-002  
  465.00  1.6845E-002  
  465.50  1.7125E-002  
  466.00  1.7474E-002  
  466.50  1.8046E-002  
  467.00  1.8427E-002  
  467.50  1.8764E-002  
  468.00  1.8916E-002  
  468.50  1.8927E-002  
  469.00  1.9199E-002  
  469.50  1.9422E-002  
  470.00  1.9717E-002  
  470.50  1.9888E-002  
  471.00  2.0056E-002  
  471.50  1.9920E-002  
  472.00  1.9777E-002  
  472.50  1.9611E-002  
  473.00  1.9588E-002  
  473.50  1.9913E-002  
  474.00  2.0454E-002  
  474.50  2.0912E-002  
  475.00  2.1156E-002  
  475.50  2.1289E-002  
  476.00  2.1353E-002  
  476.50  2.1672E-002  
  477.00  2.1819E-002  
  477.50  2.1813E-002  
  478.00  2.1760E-002  
  478.50  2.1640E-002  
  479.00  2.1930E-002  
  479.50  2.2250E-002  
  480.00  2.2614E-002  
  480.50  2.2877E-002  
  481.00  2.2822E-002  
  481.50  2.2761E-002  
  482.00  2.2882E-002  
  482.50  2.3075E-002  
  483.00  2.3415E-002  
  483.50  2.3655E-002  
  484.00  2.3823E-002  
  484.50  2.3688E-002  
  485.00  2.3585E-002  
  485.50  2.3362E-002  
  486.00  2.3359E-002  
  486.50  2.3669E-002  
  487.00  2.3923E-002  
  487.50  2.4112E-002  
  488.00  2.4238E-002  
  488.50  2.4219E-002  
  489.00  2.4385E-002  
  489.50  2.4590E-002  
  490.00  2.4879E-002  
  490.50  2.4981E-002  
  491.00  2.5062E-002  
  491.50  2.5041E-002  
  492.00  2.5214E-002  
  492.50  2.5442E-002  
  493.00  2.5671E-002  
  493.50  2.5799E-002  
  494.00  2.5853E-002  
  494.50  2.5900E-002  
  495.00  2.6000E-002  
  495.50  2.6164E-002  
  496.00  2.6279E-002  
  496.50  2.6267E-002  
  497.00  2.6320E-002  
  497.50  2.6374E-002  
  498.00  2.6558E-002  
  498.50  2.6748E-002  
  499.00  2.6926E-002  
  499.50  2.7230E-002  
  500.00  2.7359E-002  
  500.50  2.7509E-002  
  501.00  2.7653E-002  
  501.50  2.7682E-002  
  502.00  2.7918E-002  
  502.50  2.8110E-002  
  503.00  2.8370E-002  
  503.50  2.8616E-002  
  504.00  2.8686E-002  
  504.50  2.8870E-002  
  505.00  2.9072E-002  
  505.50  2.9249E-002  
  506.00  2.9406E-002  
  506.50  2.9636E-002  
  507.00  2.9997E-002  
  507.50  3.0331E-002  
  508.00  3.0564E-002  
  508.50  3.0584E-002  
  509.00  3.0668E-002  
  509.50  3.0662E-002  
  510.00  3.0831E-002  
  510.50  3.1107E-002  
  511.00  3.1543E-002  
  511.50  3.1928E-002  
  512.00  3.2067E-002  
  512.50  3.2238E-002  
  513.00  3.2329E-002  
  513.50  3.2494E-002  
  514.00  3.2714E-002  
  514.50  3.2987E-002  
  515.00  3.3317E-002  
  515.50  3.3571E-002  
  516.00  3.3645E-002  
  516.50  3.3769E-002  
  517.00  3.3916E-002  
  517.50  3.4197E-002  
  518.00  3.4586E-002  
  518.50  3.4975E-002  
  519.00  3.5211E-002  
  519.50  3.5262E-002  
  520.00  3.5191E-002  
  520.50  3.5413E-002  
  521.00  3.5760E-002  
  521.50  3.6037E-002  
  522.00  3.6287E-002  
  522.50  3.6428E-002  
  523.00  3.6809E-002  
  523.50  3.7242E-002  
  524.00  3.7622E-002  
  524.50  3.7883E-002  
  525.00  3.8108E-002  
  525.50  3.8279E-002  
  526.00  3.8473E-002  
  526.50  3.8760E-002  
  527.00  3.9153E-002  
  527.50  3.9576E-002  
  528.00  3.9830E-002  
  528.50  4.0058E-002  
  529.00  4.0328E-002  
  529.50  4.0704E-002  
  530.00  4.1097E-002  
  530.50  4.1439E-002  
  531.00  4.1717E-002  
  531.50  4.1972E-002  
  532.00  4.2163E-002  
  532.50  4.2456E-002  
  533.00  4.2691E-002  
  533.50  4.3043E-002  
  534.00  4.3310E-002  
  534.50  4.3742E-002  
  535.00  4.4192E-002  
  535.50  4.4427E-002  
  536.00  4.4598E-002  
  536.50  4.4857E-002  
  537.00  4.5191E-002  
  537.50  4.5536E-002  
  538.00  4.5704E-002  
  538.50  4.5924E-002  
  539.00  4.6368E-002  
  539.50  4.6823E-002  
  540.00  4.7135E-002  
  540.50  4.7626E-002  
  541.00  4.8086E-002  
  541.50  4.8634E-002  
  542.00  4.8935E-002  
  542.50  4.9309E-002  
  543.00  4.9844E-002  
  543.50  5.0277E-002  
  544.00  5.0450E-002  
  544.50  5.0691E-002  
  545.00  5.0879E-002  
  545.50  5.1290E-002  
  546.00  5.1794E-002  
  546.50  5.2129E-002  
  547.00  5.2672E-002  
  547.50  5.2915E-002  
  548.00  5.3304E-002  
  548.50  5.3761E-002  
  549.00  5.4080E-002  
  549.50  5.4377E-002  
  550.00  5.4525E-002  
  550.50  5.4743E-002  
  551.00  5.5162E-002  
  551.50  5.5634E-002  
  552.00  5.6019E-002  
  552.50  5.6290E-002  
  553.00  5.6430E-002  
  553.50  5.6707E-002  
  554.00  5.7006E-002  
  554.50  5.7432E-002  
  555.00  5.8007E-002  
  555.50  5.8331E-002  
  556.00  5.8862E-002  
  556.50  5.9348E-002  
  557.00  5.9865E-002  
  557.50  6.0313E-002  
  558.00  6.0588E-002  
  558.50  6.1037E-002  
  559.00  6.1430E-002  
  559.50  6.1943E-002  
  560.00  6.2414E-002  
  560.50  6.2605E-002  
  561.00  6.2789E-002  
  561.50  6.2944E-002  
  562.00  6.3367E-002  
  562.50  6.4011E-002  
  563.00  6.4435E-002  
  563.50  6.4924E-002  
  564.00  6.5127E-002  
  564.50  6.5389E-002  
  565.00  6.5783E-002  
  565.50  6.6286E-002  
  566.00  6.6664E-002  
  566.50  6.6820E-002  
  567.00  6.6960E-002  
  567.50  6.7280E-002  
  568.00  6.7790E-002  
  568.50  6.8176E-002  
  569.00  6.8471E-002  
  569.50  6.8648E-002  
  570.00  6.8887E-002  
  570.50  6.9297E-002  
  571.00  6.9782E-002  
  571.50  7.0220E-002  
  572.00  7.0632E-002  
  572.50  7.1039E-002  
  573.00  7.1643E-002  
  573.50  7.2235E-002  
  574.00  7.2763E-002  
  574.50  7.3195E-002  
  575.00  7.3398E-002  
  575.50  7.3512E-002  
  576.00  7.3611E-002  
  576.50  7.3876E-002  
  577.00  7.4310E-002  
  577.50  7.4675E-002  
  578.00  7.5008E-002  
  578.50  7.5378E-002  
  579.00  7.5757E-002  
  579.50  7.6280E-002  
  580.00  7.6825E-002  
  580.50  7.7220E-002  
  581.00  7.7655E-002  
  581.50  7.8023E-002  
  582.00  7.8414E-002  
  582.50  7.8582E-002  
  583.00  7.8694E-002  
  583.50  7.8952E-002  
  584.00  7.9594E-002  
  584.50  8.0010E-002  
  585.00  8.0334E-002  
  585.50  8.0532E-002  
  586.00  8.0970E-002  
  586.50  8.1306E-002  
  587.00  8.1834E-002  
  587.50  8.2356E-002  
  588.00  8.2830E-002  
  588.50  8.2867E-002  
  589.00  8.2730E-002  
  589.50  8.3220E-002  
  590.00  8.4150E-002  
  590.50  8.5117E-002  
  591.00  8.5665E-002  
  591.50  8.5804E-002  
  592.00  8.5949E-002  
  592.50  8.6096E-002  
  593.00  8.6221E-002  
  593.50  8.6663E-002  
  594.00  8.7351E-002  
  594.50  8.7977E-002  
  595.00  8.8390E-002  
  595.50  8.8521E-002  
  596.00  8.9006E-002  
  596.50  8.9619E-002  
  597.00  8.9938E-002  
  597.50  9.0079E-002  
  598.00  9.0136E-002  
  598.50  9.0380E-002  
  599.00  9.0845E-002  
  599.50  9.1123E-002  
  600.00  9.1071E-002  
  600.50  9.1181E-002  
  601.00  9.1455E-002  
  601.50  9.2014E-002  
  602.00  9.2356E-002  
  602.50  9.2719E-002  
  603.00  9.3226E-002  
  603.50  9.3948E-002  
  604.00  9.4372E-002  
  604.50  9.4402E-002  
  605.00  9.4511E-002  
  605.50  9.5042E-002  
  606.00  9.5677E-002  
  606.50  9.6083E-002  
  607.00  9.5980E-002  
  607.50  9.6139E-002  
  608.00  9.6399E-002  
  608.50  9.6883E-002  
  609.00  9.7375E-002  
  609.50  9.7618E-002  
  610.00  9.8316E-002  
  610.50  9.8769E-002  
  611.00  9.9215E-002  
  611.50  9.9409E-002  
  612.00  9.9374E-002  
  612.50  9.9491E-002  
  613.00  9.9578E-002  
  613.50  9.9802E-002  
  614.00  1.0019E-001  
  614.50  1.0046E-001  
  615.00  1.0065E-001  
  615.50  1.0117E-001  
  616.00  1.0133E-001  
  616.50  1.0179E-001  
  617.00  1.0226E-001  
  617.50  1.0295E-001  
  618.00  1.0342E-001  
  618.50  1.0366E-001  
  619.00  1.0378E-001  
  619.50  1.0413E-001  
  620.00  1.0437E-001  
  620.50  1.0466E-001  
  621.00  1.0486E-001  
  621.50  1.0485E-001  
  622.00  1.0511E-001  
  622.50  1.0545E-001  
  623.00  1.0595E-001  
  623.50  1.0651E-001  
  624.00  1.0688E-001  
  624.50  1.0704E-001  
  625.00  1.0731E-001  
  625.50  1.0741E-001  
  626.00  1.0773E-001  
  626.50  1.0804E-001  
  627.00  1.0850E-001  
  627.50  1.0888E-001  
  628.00  1.0911E-001  
  628.50  1.0947E-001  
  629.00  1.0973E-001  
  629.50  1.0982E-001  
  630.00  1.0991E-001  
  630.50  1.1015E-001  
  631.00  1.1022E-001  
  631.50  1.1039E-001  
  632.00  1.1080E-001  
  632.50  1.1121E-001  
  633.00  1.1178E-001  
  633.50  1.1209E-001  
  634.00  1.1275E-001  
  634.50  1.1287E-001  
  635.00  1.1276E-001  
  635.50  1.1285E-001  
  636.00  1.1318E-001  
  636.50  1.1357E-001  
  637.00  1.1382E-001  
  637.50  1.1463E-001  
  638.00  1.1549E-001  
  638.50  1.1610E-001  
  639.00  1.1569E-001  
  639.50  1.1510E-001  
  640.00  1.1484E-001  
  640.50  1.1508E-001  
  641.00  1.1586E-001  
  641.50  1.1665E-001  
  642.00  1.1734E-001  
  642.50  1.1803E-001  
  643.00  1.1824E-001  
  643.50  1.1859E-001  
  644.00  1.1861E-001  
  644.50  1.1877E-001  
  645.00  1.1884E-001  
  645.50  1.1918E-001  
  646.00  1.1966E-001  
  646.50  1.2024E-001  
  647.00  1.2119E-001  
  647.50  1.2192E-001  
  648.00  1.2215E-001  
  648.50  1.2176E-001  
  649.00  1.2158E-001  
  649.50  1.2167E-001  
  650.00  1.2199E-001  
  650.50  1.2237E-001  
  651.00  1.2269E-001  
  651.50  1.2314E-001  
  652.00  1.2367E-001  
  652.50  1.2411E-001  
  653.00  1.2416E-001  
  653.50  1.2369E-001  
  654.00  1.2394E-001  
  654.50  1.2440E-001  
  655.00  1.2519E-001  
  655.50  1.2507E-001  
  656.00  1.2507E-001  
  656.50  1.2522E-001  
  657.00  1.2560E-001  
  657.50  1.2599E-001  
  658.00  1.2641E-001  
  658.50  1.2696E-001  
  659.00  1.2703E-001  
  659.50  1.2665E-001  
  660.00  1.2668E-001  
  660.50  1.2698E-001  
  661.00  1.2744E-001  
  661.50  1.2728E-001  
  662.00  1.2717E-001  
  662.50  1.2755E-001  
  663.00  1.2840E-001  
  663.50  1.2895E-001  
  664.00  1.2912E-001  
  664.50  1.2889E-001  
  665.00  1.2895E-001  
  665.50  1.2916E-001  
  666.00  1.2981E-001  
  666.50  1.3049E-001  
  667.00  1.3094E-001  
  667.50  1.3098E-001  
  668.00  1.3075E-001  
  668.50  1.3051E-001  
  669.00  1.3065E-001  
  669.50  1.3115E-001  
  670.00  1.3162E-001  
  670.50  1.3189E-001  
  671.00  1.3181E-001  
  671.50  1.3176E-001  
  672.00  1.3162E-001  
  672.50  1.3174E-001  
  673.00  1.3230E-001  
  673.50  1.3294E-001  
  674.00  1.3292E-001  
  674.50  1.3242E-001  
  675.00  1.3233E-001  
  675.50  1.3334E-001  
  676.00  1.3442E-001  
  676.50  1.3452E-001  
  677.00  1.3409E-001  
  677.50  1.3416E-001  
  678.00  1.3474E-001  
  678.50  1.3487E-001  
  679.00  1.3463E-001  
  679.50  1.3411E-001  
  680.00  1.3417E-001  
  680.50  1.3443E-001  
  681.00  1.3460E-001  
  681.50  1.3458E-001  
  682.00  1.3479E-001  
  682.50  1.3543E-001  
  683.00  1.3612E-001  
  683.50  1.3614E-001  
  684.00  1.3587E-001  
  684.50  1.3548E-001  
  685.00  1.3551E-001  
  685.50  1.3543E-001  
  686.00  1.3519E-001  
  686.50  1.3524E-001  
  687.00  1.3640E-001  
  687.50  1.3816E-001  
  688.00  1.3892E-001  
  688.50  1.3875E-001  
  689.00  1.3820E-001  
  689.50  1.3806E-001  
  690.00  1.3827E-001  
  690.50  1.3869E-001  
  691.00  1.3844E-001  
  691.50  1.3796E-001  
  692.00  1.3764E-001  
  692.50  1.3839E-001  
  693.00  1.3909E-001  
  693.50  1.3884E-001  
  694.00  1.3831E-001  
  694.50  1.3816E-001  
  695.00  1.3843E-001  
  695.50  1.3864E-001  
  696.00  1.3906E-001  
  696.50  1.3947E-001  
  697.00  1.3975E-001  
  697.50  1.4008E-001  
  698.00  1.4048E-001  
  698.50  1.4075E-001  
  699.00  1.4067E-001  
  699.50  1.4095E-001  
  700.00  1.4125E-001  
  700.50  1.4144E-001  
  701.00  1.4194E-001  
  701.50  1.4224E-001  
  702.00  1.4243E-001  
  702.50  1.4249E-001  
  703.00  1.4272E-001  
  703.50  1.4295E-001  
  704.00  1.4294E-001  
  704.50  1.4327E-001  
  705.00  1.4337E-001  
  705.50  1.4351E-001  
  706.00  1.4346E-001  
  706.50  1.4368E-001  
  707.00  1.4387E-001  
  707.50  1.4443E-001  
  708.00  1.4470E-001  
  708.50  1.4523E-001  
  709.00  1.4505E-001  
  709.50  1.4491E-001  
  710.00  1.4526E-001  
  710.50  1.4625E-001  
  711.00  1.4647E-001  
  711.50  1.4551E-001  
  712.00  1.4501E-001  
  712.50  1.4530E-001  
  713.00  1.4534E-001  
  713.50  1.4552E-001  
  714.00  1.4585E-001  
  714.50  1.4629E-001  
  715.00  1.4599E-001  
  715.50  1.4570E-001  
  716.00  1.4584E-001  
  716.50  1.4639E-001  
  717.00  1.4679E-001  
  717.50  1.4712E-001  
  718.00  1.4714E-001  
  718.50  1.4692E-001  
  719.00  1.4708E-001  
  719.50  1.4687E-001  
  720.00  1.4670E-001  
  720.50  1.4665E-001  
  721.00  1.4738E-001  
  721.50  1.4773E-001  
  722.00  1.4780E-001  
  722.50  1.4752E-001  
  723.00  1.4814E-001  
  723.50  1.4865E-001  
  724.00  1.4902E-001  
  724.50  1.4913E-001  
  725.00  1.4898E-001  
  725.50  1.4927E-001  
  726.00  1.4924E-001  
  726.50  1.4942E-001  
  727.00  1.4979E-001  
  727.50  1.5024E-001  
  728.00  1.5015E-001  
  728.50  1.4968E-001  
  729.00  1.4974E-001  
  729.50  1.5053E-001  
  730.00  1.5148E-001  
  730.50  1.5196E-001  
  731.00  1.5185E-001  
  731.50  1.5191E-001  
  732.00  1.5165E-001  
  732.50  1.5168E-001  
  733.00  1.5171E-001  
  733.50  1.5201E-001  
  734.00  1.5180E-001  
  734.50  1.5153E-001  
  735.00  1.5164E-001  
  735.50  1.5188E-001  
  736.00  1.5266E-001  
  736.50  1.5311E-001  
  737.00  1.5316E-001  
  737.50  1.5305E-001  
  738.00  1.5396E-001  
  738.50  1.5452E-001  
  739.00  1.5460E-001  
  739.50  1.5412E-001  
  740.00  1.5447E-001  
  740.50  1.5483E-001  
  741.00  1.5476E-001  
  741.50  1.5457E-001  
  742.00  1.5459E-001  
  742.50  1.5478E-001  
  743.00  1.5499E-001  
  743.50  1.5529E-001  
  744.00  1.5568E-001  
  744.50  1.5645E-001  
  745.00  1.5679E-001  
  745.50  1.5656E-001  
  746.00  1.5609E-001  
  746.50  1.5610E-001  
  747.00  1.5638E-001  
  747.50  1.5714E-001  
  748.00  1.5703E-001  
  748.50  1.5689E-001  
  749.00  1.5641E-001  
  749.50  1.5711E-001  
  750.00  1.5782E-001  
  750.50  1.5816E-001  
  751.00  1.5842E-001  
  751.50  1.5883E-001  
  752.00  1.5886E-001  
  752.50  1.5867E-001  
  753.00  1.5896E-001  
  753.50  1.5959E-001  
  754.00  1.5958E-001  
  754.50  1.5935E-001  
  755.00  1.5879E-001  
  755.50  1.5921E-001  
  756.00  1.5922E-001  
  756.50  1.5972E-001  
  757.00  1.6000E-001  
  757.50  1.6132E-001  
  758.00  1.6203E-001  
  758.50  1.6156E-001  
  759.00  1.6108E-001  
  759.50  1.6111E-001  
  760.00  1.6199E-001  
  760.50  1.6190E-001  
  761.00  1.6169E-001  
  761.50  1.6138E-001  
  762.00  1.6264E-001  
  762.50  1.6326E-001  
  763.00  1.6278E-001  
  763.50  1.6167E-001  
  764.00  1.6138E-001  
  764.50  1.6162E-001  
  765.00  1.6183E-001  
  765.50  1.6196E-001  
  766.00  1.6234E-001  
  766.50  1.6335E-001  
  767.00  1.6395E-001  
  767.50  1.6285E-001  
  768.00  1.6305E-001  
  768.50  1.6348E-001  
  769.00  1.6379E-001  
  769.50  1.6265E-001  
  770.00  1.6208E-001  
  770.50  1.6262E-001  
  771.00  1.6434E-001  
  771.50  1.6556E-001  
  772.00  1.6606E-001  
  772.50  1.6557E-001  
  773.00  1.6508E-001  
  773.50  1.6563E-001  
  774.00  1.6622E-001  
  774.50  1.6607E-001  
  775.00  1.6579E-001  
  775.50  1.6661E-001  
  776.00  1.6674E-001  
  776.50  1.6636E-001  
  777.00  1.6537E-001  
  777.50  1.6630E-001  
  778.00  1.6754E-001  
  778.50  1.6734E-001  
  779.00  1.6630E-001  
  779.50  1.6627E-001  
  780.00  1.6733E-001  
  780.50  1.6778E-001  
  781.00  1.6779E-001  
  781.50  1.6707E-001  
  782.00  1.6707E-001  
  782.50  1.6678E-001  
  783.00  1.6752E-001  
  783.50  1.6839E-001  
  784.00  1.6837E-001  
  784.50  1.6770E-001  
  785.00  1.6770E-001  
  785.50  1.6837E-001  
  786.00  1.6968E-001  
  786.50  1.6996E-001  
  787.00  1.6952E-001  
  787.50  1.6909E-001  
  788.00  1.6848E-001  
  788.50  1.6811E-001  
  789.00  1.6851E-001  
  789.50  1.6917E-001  
  790.00  1.7092E-001  
  790.50  1.7170E-001  
  791.00  1.7160E-001  
  791.50  1.7077E-001  
  792.00  1.7068E-001  
  792.50  1.7220E-001  
  793.00  1.7326E-001  
  793.50  1.7249E-001  
  794.00  1.7120E-001  
  794.50  1.7151E-001  
  795.00  1.7226E-001  
  795.50  1.7093E-001  
  796.00  1.6932E-001  
  796.50  1.7043E-001  
  797.00  1.7249E-001  
  797.50  1.7313E-001  
  798.00  1.7235E-001  
  798.50  1.7196E-001  
  799.00  1.7232E-001  
  799.50  1.7385E-001  
  800.00  1.7305E-001  
  800.50  1.7235E-001  
  801.00  1.7230E-001  
  801.50  1.7386E-001  
  802.00  1.7422E-001  
  802.50  1.7430E-001  
  803.00  1.7489E-001  
  803.50  1.7528E-001  
  804.00  1.7437E-001  
  804.50  1.7346E-001  
  805.00  1.7347E-001  
  805.50  1.7387E-001  
  806.00  1.7387E-001  
  806.50  1.7235E-001  
  807.00  1.7353E-001  
  807.50  1.7425E-001  
  808.00  1.7628E-001  
  808.50  1.7653E-001  
  809.00  1.7626E-001  
  809.50  1.7518E-001  
  810.00  1.7512E-001  
  810.50  1.7581E-001  
  811.00  1.7766E-001  
  811.50  1.7881E-001  
  812.00  1.7810E-001  
  812.50  1.7666E-001  
  813.00  1.7641E-001  
  813.50  1.7740E-001  
  814.00  1.7796E-001  
  814.50  1.7907E-001  
  815.00  1.7973E-001  
  815.50  1.7939E-001  
  816.00  1.7920E-001  
  816.50  1.8073E-001  
  817.00  1.8134E-001  
  817.50  1.8080E-001  
  818.00  1.7835E-001  
  818.50  1.7785E-001  
  819.00  1.7835E-001  
  819.50  1.8083E-001  
  820.00  1.8171E-001  
  820.50  1.8060E-001  
  821.00  1.7992E-001  
  821.50  1.8042E-001  
  822.00  1.8069E-001  
  822.50  1.8073E-001  
  823.00  1.8162E-001  
  823.50  1.8366E-001  
  824.00  1.8439E-001  
  824.50  1.8459E-001  
  825.00  1.8390E-001  
  825.50  1.8381E-001  
  826.00  1.8301E-001  
  826.50  1.8343E-001  
  827.00  1.8344E-001  
  827.50  1.8368E-001  
  828.00  1.8380E-001  
  828.50  1.8342E-001  
  829.00  1.8341E-001  
  829.50  1.8267E-001  
  830.00  1.8227E-001  
  830.50  1.8187E-001  
  831.00  1.8250E-001  
  831.50  1.8323E-001  
  832.00  1.8492E-001  
  832.50  1.8410E-001  
  833.00  1.8158E-001  
  833.50  1.8163E-001  
  834.00  1.8407E-001  
  834.50  1.8508E-001  
  835.00  1.8424E-001  
  835.50  1.8475E-001  
  836.00  1.8713E-001  
  836.50  1.8676E-001  
  837.00  1.8659E-001  
  837.50  1.8777E-001  
  838.00  1.9014E-001  
  838.50  1.8954E-001  
  839.00  1.8793E-001  
  839.50  1.8768E-001  
  840.00  1.8784E-001  
  840.50  1.8771E-001  
  841.00  1.8755E-001  
  841.50  1.8768E-001  
  842.00  1.8734E-001  
  842.50  1.8798E-001  
  843.00  1.8894E-001  
  843.50  1.8845E-001  
  844.00  1.8584E-001  
  844.50  1.8582E-001  
  845.00  1.8821E-001  
  845.50  1.8954E-001  
  846.00  1.8776E-001  
  846.50  1.8607E-001  
  847.00  1.8828E-001  
  847.50  1.9033E-001  
  848.00  1.9117E-001  
  848.50  1.9130E-001  
  849.00  1.9056E-001  
  849.50  1.9070E-001  
  850.00  1.9241E-001  
  850.50  1.9339E-001  
  851.00  1.9438E-001  
  851.50  1.9315E-001  
  852.00  1.9333E-001  
  852.50  1.9441E-001  
  853.00  1.9357E-001  
  853.50  1.9015E-001  
  854.00  1.8815E-001  
  854.50  1.8888E-001  
  855.00  1.8832E-001  
  855.50  1.8936E-001  
  856.00  1.9094E-001  
  856.50  1.9155E-001  
  857.00  1.9222E-001  
  857.50  1.9221E-001  
  858.00  1.9258E-001  
  858.50  1.9379E-001  
  859.00  1.9648E-001  
  859.50  1.9382E-001  
  860.00  1.9401E-001  
  860.50  1.9664E-001  
  861.00  1.9628E-001  
  861.50  1.9482E-001  
  862.00  1.9530E-001  
  862.50  1.9442E-001  
  863.00  1.9427E-001  
  863.50  1.9551E-001  
  864.00  1.9851E-001  
  864.50  1.9811E-001  
  865.00  1.9759E-001  
  865.50  1.9682E-001  
  866.00  1.9891E-001  
  866.50  2.0057E-001  
  867.00  1.9954E-001  
  867.50  1.9990E-001  
  868.00  1.9918E-001  
  868.50  1.9974E-001  
  869.00  1.9901E-001  
  869.50  1.9781E-001  
  870.00  1.9897E-001  
  870.50  2.0005E-001  
  871.00  2.0048E-001  
  871.50  2.0307E-001  
  872.00  2.0285E-001  
  872.50  2.0368E-001  
  873.00  2.0315E-001  
  873.50  2.0424E-001  
  874.00  2.0468E-001  
  874.50  2.0343E-001  
  875.00  1.9985E-001  
  875.50  1.9794E-001  
  876.00  1.9782E-001  
  876.50  2.0079E-001  
  877.00  2.0296E-001  
  877.50  2.0352E-001  
  878.00  2.0276E-001  
  878.50  2.0193E-001  
  879.00  2.0275E-001  
  879.50  2.0294E-001  
  880.00  2.0393E-001  
  880.50  2.0213E-001  
  881.00  2.0083E-001  
  881.50  2.0019E-001  
  882.00  1.9993E-001  
  882.50  1.9832E-001  
  883.00  1.9653E-001  
  883.50  2.0144E-001  
  884.00  2.0610E-001  
  884.50  2.0841E-001  
  885.00  2.0609E-001  
  885.50  2.0279E-001  
  886.00  2.0263E-001  
  886.50  2.0028E-001  
  887.00  1.9866E-001  
  887.50  1.9950E-001  
  888.00  2.0172E-001  
  888.50  2.0473E-001  
  889.00  2.0694E-001  
  889.50  2.0682E-001  
  890.00  2.0429E-001  
  890.50  2.0554E-001  
  891.00  2.0745E-001  
  891.50  2.0710E-001  
  892.00  2.0821E-001  
  892.50  2.0742E-001  
  893.00  2.0512E-001  
  893.50  2.0535E-001  
  894.00  2.0749E-001  
  894.50  2.0907E-001  
  895.00  2.0526E-001  
  895.50  2.0372E-001  
  896.00  2.0751E-001  
  896.50  2.1124E-001  
  897.00  2.1250E-001  
  897.50  2.0876E-001  
  898.00  2.0648E-001  
  898.50  2.0749E-001  
  899.00  2.1013E-001  
  899.50  4.1497E-003  
