
# From lspdd.org
# 
# Name: INC Rona A19 Domestique
# Indice spectral Valeur 
# MSI 0.07 
# SLI 0.06 
# IPI 3.28 
# Pourcentage de bleu 0.6 
# Caractéristique Valeur 
# CCT calculée (K) 752 
# CCT du fabricant (K) 1000 
# Tension (V) 130 
# Puissance (W) 60.0 
# Efficacité lumineuse (Lum/W) ND 
#
# Image: '/app/system/img_1s/2740/medium_image1.jpg?1612236497'
# 

  273.00  0.0000E+000  
  273.50  0.0000E+000  
  274.00  0.0000E+000  
  274.50  0.0000E+000  
  275.00  0.0000E+000  
  275.50  0.0000E+000  
  276.00  0.0000E+000  
  276.50  0.0000E+000  
  277.00  0.0000E+000  
  277.50  0.0000E+000  
  278.00  0.0000E+000  
  278.50  0.0000E+000  
  279.00  0.0000E+000  
  279.50  0.0000E+000  
  280.00  0.0000E+000  
  280.50  0.0000E+000  
  281.00  0.0000E+000  
  281.50  0.0000E+000  
  282.00  0.0000E+000  
  282.50  0.0000E+000  
  283.00  0.0000E+000  
  283.50  0.0000E+000  
  284.00  0.0000E+000  
  284.50  0.0000E+000  
  285.00  0.0000E+000  
  285.50  0.0000E+000  
  286.00  0.0000E+000  
  286.50  0.0000E+000  
  287.00  0.0000E+000  
  287.50  0.0000E+000  
  288.00  0.0000E+000  
  288.50  0.0000E+000  
  289.00  0.0000E+000  
  289.50  0.0000E+000  
  290.00  0.0000E+000  
  290.50  0.0000E+000  
  291.00  0.0000E+000  
  291.50  0.0000E+000  
  292.00  0.0000E+000  
  292.50  0.0000E+000  
  293.00  0.0000E+000  
  293.50  0.0000E+000  
  294.00  0.0000E+000  
  294.50  0.0000E+000  
  295.00  0.0000E+000  
  295.50  0.0000E+000  
  296.00  0.0000E+000  
  296.50  0.0000E+000  
  297.00  0.0000E+000  
  297.50  0.0000E+000  
  298.00  0.0000E+000  
  298.50  0.0000E+000  
  299.00  0.0000E+000  
  299.50  0.0000E+000  
  300.00  0.0000E+000  
  300.50  0.0000E+000  
  301.00  0.0000E+000  
  301.50  1.2186E-004  
  302.00  2.3362E-004  
  302.50  2.6419E-004  
  303.00  0.0000E+000  
  303.50  0.0000E+000  
  304.00  0.0000E+000  
  304.50  0.0000E+000  
  305.00  0.0000E+000  
  305.50  1.6612E-004  
  306.00  2.4488E-004  
  306.50  2.8369E-004  
  307.00  7.5987E-005  
  307.50  2.9187E-006  
  308.00  9.0408E-005  
  308.50  2.4794E-004  
  309.00  3.2781E-004  
  309.50  1.2200E-004  
  310.00  0.0000E+000  
  310.50  0.0000E+000  
  311.00  0.0000E+000  
  311.50  0.0000E+000  
  312.00  0.0000E+000  
  312.50  0.0000E+000  
  313.00  0.0000E+000  
  313.50  0.0000E+000  
  314.00  0.0000E+000  
  314.50  0.0000E+000  
  315.00  0.0000E+000  
  315.50  0.0000E+000  
  316.00  9.1855E-005  
  316.50  2.7665E-004  
  317.00  4.0498E-004  
  317.50  6.3604E-004  
  318.00  6.4224E-004  
  318.50  7.1720E-004  
  319.00  6.3941E-004  
  319.50  3.5284E-004  
  320.00  1.4315E-004  
  320.50  0.0000E+000  
  321.00  0.0000E+000  
  321.50  0.0000E+000  
  322.00  0.0000E+000  
  322.50  0.0000E+000  
  323.00  0.0000E+000  
  323.50  0.0000E+000  
  324.00  0.0000E+000  
  324.50  0.0000E+000  
  325.00  0.0000E+000  
  325.50  0.0000E+000  
  326.00  0.0000E+000  
  326.50  0.0000E+000  
  327.00  2.0524E-005  
  327.50  1.8131E-004  
  328.00  3.2076E-004  
  328.50  3.4416E-004  
  329.00  2.5283E-004  
  329.50  2.6377E-004  
  330.00  1.9944E-004  
  330.50  1.7463E-005  
  331.00  0.0000E+000  
  331.50  0.0000E+000  
  332.00  0.0000E+000  
  332.50  0.0000E+000  
  333.00  9.6251E-007  
  333.50  6.2755E-005  
  334.00  1.8577E-004  
  334.50  2.7729E-004  
  335.00  1.9101E-004  
  335.50  2.5997E-004  
  336.00  2.1955E-004  
  336.50  1.7899E-004  
  337.00  4.8307E-005  
  337.50  0.0000E+000  
  338.00  1.4147E-005  
  338.50  1.7328E-004  
  339.00  5.5387E-004  
  339.50  9.2166E-004  
  340.00  9.0081E-004  
  340.50  7.5223E-004  
  341.00  3.8638E-004  
  341.50  3.8774E-005  
  342.00  0.0000E+000  
  342.50  0.0000E+000  
  343.00  0.0000E+000  
  343.50  0.0000E+000  
  344.00  0.0000E+000  
  344.50  0.0000E+000  
  345.00  0.0000E+000  
  345.50  0.0000E+000  
  346.00  0.0000E+000  
  346.50  0.0000E+000  
  347.00  0.0000E+000  
  347.50  0.0000E+000  
  348.00  0.0000E+000  
  348.50  0.0000E+000  
  349.00  0.0000E+000  
  349.50  0.0000E+000  
  350.00  0.0000E+000  
  350.50  0.0000E+000  
  351.00  0.0000E+000  
  351.50  0.0000E+000  
  352.00  0.0000E+000  
  352.50  0.0000E+000  
  353.00  0.0000E+000  
  353.50  0.0000E+000  
  354.00  1.2505E-006  
  354.50  1.7952E-005  
  355.00  0.0000E+000  
  355.50  0.0000E+000  
  356.00  0.0000E+000  
  356.50  0.0000E+000  
  357.00  0.0000E+000  
  357.50  0.0000E+000  
  358.00  0.0000E+000  
  358.50  0.0000E+000  
  359.00  0.0000E+000  
  359.50  0.0000E+000  
  360.00  0.0000E+000  
  360.50  0.0000E+000  
  361.00  0.0000E+000  
  361.50  0.0000E+000  
  362.00  0.0000E+000  
  362.50  0.0000E+000  
  363.00  0.0000E+000  
  363.50  0.0000E+000  
  364.00  0.0000E+000  
  364.50  5.0764E-006  
  365.00  6.2199E-005  
  365.50  1.5938E-004  
  366.00  1.4644E-004  
  366.50  1.5640E-005  
  367.00  3.2267E-005  
  367.50  1.1581E-004  
  368.00  1.0410E-004  
  368.50  9.6524E-005  
  369.00  6.5251E-005  
  369.50  0.0000E+000  
  370.00  0.0000E+000  
  370.50  0.0000E+000  
  371.00  0.0000E+000  
  371.50  8.8984E-005  
  372.00  4.4496E-004  
  372.50  8.5093E-004  
  373.00  6.4425E-004  
  373.50  4.9594E-004  
  374.00  1.3547E-004  
  374.50  0.0000E+000  
  375.00  4.1966E-005  
  375.50  0.0000E+000  
  376.00  0.0000E+000  
  376.50  0.0000E+000  
  377.00  0.0000E+000  
  377.50  1.6477E-005  
  378.00  3.6097E-006  
  378.50  0.0000E+000  
  379.00  0.0000E+000  
  379.50  0.0000E+000  
  380.00  2.8718E-004  
  380.50  6.8719E-004  
  381.00  7.6557E-004  
  381.50  7.0035E-004  
  382.00  3.3695E-004  
  382.50  1.5199E-004  
  383.00  1.9367E-005  
  383.50  0.0000E+000  
  384.00  0.0000E+000  
  384.50  0.0000E+000  
  385.00  0.0000E+000  
  385.50  0.0000E+000  
  386.00  7.7432E-005  
  386.50  1.4279E-004  
  387.00  2.3137E-004  
  387.50  1.7442E-004  
  388.00  0.0000E+000  
  388.50  0.0000E+000  
  389.00  0.0000E+000  
  389.50  2.8712E-006  
  390.00  1.0131E-004  
  390.50  3.0503E-004  
  391.00  3.7811E-004  
  391.50  6.5434E-005  
  392.00  0.0000E+000  
  392.50  0.0000E+000  
  393.00  0.0000E+000  
  393.50  5.9435E-006  
  394.00  8.5892E-006  
  394.50  0.0000E+000  
  395.00  0.0000E+000  
  395.50  0.0000E+000  
  396.00  0.0000E+000  
  396.50  1.0342E-004  
  397.00  4.8689E-004  
  397.50  6.4217E-004  
  398.00  7.4344E-004  
  398.50  9.3206E-004  
  399.00  8.3738E-004  
  399.50  7.3686E-004  
  400.00  2.8292E-004  
  400.50  6.0967E-005  
  401.00  6.9603E-005  
  401.50  1.7690E-004  
  402.00  2.2755E-004  
  402.50  5.2708E-005  
  403.00  3.6443E-005  
  403.50  3.0340E-005  
  404.00  2.0050E-004  
  404.50  2.2247E-004  
  405.00  1.5740E-004  
  405.50  1.9411E-004  
  406.00  1.9121E-004  
  406.50  4.7121E-004  
  407.00  5.6805E-004  
  407.50  5.9408E-004  
  408.00  6.0036E-004  
  408.50  5.5885E-004  
  409.00  6.0629E-004  
  409.50  4.9686E-004  
  410.00  3.2387E-004  
  410.50  3.0082E-004  
  411.00  4.8920E-004  
  411.50  7.3560E-004  
  412.00  8.7407E-004  
  412.50  8.0520E-004  
  413.00  7.5105E-004  
  413.50  6.4981E-004  
  414.00  7.0162E-004  
  414.50  7.6868E-004  
  415.00  9.7618E-004  
  415.50  1.1060E-003  
  416.00  9.2628E-004  
  416.50  8.3721E-004  
  417.00  8.4351E-004  
  417.50  8.8749E-004  
  418.00  1.0759E-003  
  418.50  8.0668E-004  
  419.00  8.6507E-004  
  419.50  1.0781E-003  
  420.00  9.8803E-004  
  420.50  1.1327E-003  
  421.00  1.1296E-003  
  421.50  1.0764E-003  
  422.00  1.0343E-003  
  422.50  6.9524E-004  
  423.00  3.1141E-004  
  423.50  4.6222E-004  
  424.00  6.8187E-004  
  424.50  9.7703E-004  
  425.00  1.1013E-003  
  425.50  1.0329E-003  
  426.00  9.4652E-004  
  426.50  1.0301E-003  
  427.00  1.0071E-003  
  427.50  1.1580E-003  
  428.00  1.1345E-003  
  428.50  1.4503E-003  
  429.00  1.6495E-003  
  429.50  1.6744E-003  
  430.00  1.5967E-003  
  430.50  1.3775E-003  
  431.00  1.3393E-003  
  431.50  1.5419E-003  
  432.00  1.7168E-003  
  432.50  1.7819E-003  
  433.00  1.7131E-003  
  433.50  1.4675E-003  
  434.00  1.4474E-003  
  434.50  1.2619E-003  
  435.00  1.3681E-003  
  435.50  1.4333E-003  
  436.00  1.4146E-003  
  436.50  1.3653E-003  
  437.00  1.2422E-003  
  437.50  1.0133E-003  
  438.00  1.0571E-003  
  438.50  1.1026E-003  
  439.00  1.3725E-003  
  439.50  1.8640E-003  
  440.00  2.2215E-003  
  440.50  2.1274E-003  
  441.00  2.0275E-003  
  441.50  1.8625E-003  
  442.00  1.8507E-003  
  442.50  1.8626E-003  
  443.00  1.8074E-003  
  443.50  1.7453E-003  
  444.00  1.5453E-003  
  444.50  1.4004E-003  
  445.00  1.2229E-003  
  445.50  1.2458E-003  
  446.00  1.3182E-003  
  446.50  1.4932E-003  
  447.00  1.5889E-003  
  447.50  1.8087E-003  
  448.00  1.8302E-003  
  448.50  1.7340E-003  
  449.00  1.8261E-003  
  449.50  1.6994E-003  
  450.00  1.5587E-003  
  450.50  1.4733E-003  
  451.00  1.3221E-003  
  451.50  1.5212E-003  
  452.00  1.5716E-003  
  452.50  1.7534E-003  
  453.00  1.7970E-003  
  453.50  1.6830E-003  
  454.00  1.4803E-003  
  454.50  1.3173E-003  
  455.00  1.3911E-003  
  455.50  1.4334E-003  
  456.00  1.4858E-003  
  456.50  1.2708E-003  
  457.00  8.7713E-004  
  457.50  6.8450E-004  
  458.00  5.5171E-004  
  458.50  8.9093E-004  
  459.00  1.1524E-003  
  459.50  1.4281E-003  
  460.00  1.3443E-003  
  460.50  1.1479E-003  
  461.00  7.6262E-004  
  461.50  5.9898E-004  
  462.00  2.9480E-004  
  462.50  4.0236E-004  
  463.00  5.4958E-004  
  463.50  7.8137E-004  
  464.00  9.2670E-004  
  464.50  7.4806E-004  
  465.00  6.8141E-004  
  465.50  7.4329E-004  
  466.00  9.3143E-004  
  466.50  9.5709E-004  
  467.00  1.0166E-003  
  467.50  1.1695E-003  
  468.00  1.2499E-003  
  468.50  1.2125E-003  
  469.00  9.6154E-004  
  469.50  8.2901E-004  
  470.00  9.1621E-004  
  470.50  1.0569E-003  
  471.00  1.0074E-003  
  471.50  7.6513E-004  
  472.00  4.5685E-004  
  472.50  4.5251E-004  
  473.00  6.1062E-004  
  473.50  9.0264E-004  
  474.00  1.0797E-003  
  474.50  8.6390E-004  
  475.00  7.1367E-004  
  475.50  5.6310E-004  
  476.00  5.8498E-004  
  476.50  7.6523E-004  
  477.00  7.3012E-004  
  477.50  6.6771E-004  
  478.00  6.0123E-004  
  478.50  4.8512E-004  
  479.00  4.4323E-004  
  479.50  4.6879E-004  
  480.00  5.2675E-004  
  480.50  6.0221E-004  
  481.00  4.7126E-004  
  481.50  3.8189E-004  
  482.00  3.0444E-004  
  482.50  4.5064E-004  
  483.00  6.7538E-004  
  483.50  7.0958E-004  
  484.00  8.2317E-004  
  484.50  6.3577E-004  
  485.00  4.2038E-004  
  485.50  3.4026E-004  
  486.00  2.0716E-004  
  486.50  2.5595E-004  
  487.00  3.0213E-004  
  487.50  3.9862E-004  
  488.00  5.5082E-004  
  488.50  7.3901E-004  
  489.00  7.9791E-004  
  489.50  7.5670E-004  
  490.00  6.2818E-004  
  490.50  3.5869E-004  
  491.00  1.9366E-004  
  491.50  1.0103E-004  
  492.00  8.0383E-005  
  492.50  1.2285E-004  
  493.00  6.1534E-005  
  493.50  1.8169E-004  
  494.00  3.1206E-004  
  494.50  4.1465E-004  
  495.00  4.6802E-004  
  495.50  4.6233E-004  
  496.00  4.1698E-004  
  496.50  3.5636E-004  
  497.00  2.9997E-004  
  497.50  1.8244E-004  
  498.00  2.0577E-004  
  498.50  1.9682E-004  
  499.00  2.2805E-004  
  499.50  3.0859E-004  
  500.00  3.4077E-004  
  500.50  3.2168E-004  
  501.00  3.2949E-004  
  501.50  3.6152E-004  
  502.00  4.2134E-004  
  502.50  4.0959E-004  
  503.00  3.5128E-004  
  503.50  2.8857E-004  
  504.00  2.3981E-004  
  504.50  1.9214E-004  
  505.00  2.0096E-004  
  505.50  2.2659E-004  
  506.00  2.8805E-004  
  506.50  2.8491E-004  
  507.00  3.0538E-004  
  507.50  3.8594E-004  
  508.00  4.9881E-004  
  508.50  6.0895E-004  
  509.00  6.5862E-004  
  509.50  6.1504E-004  
  510.00  4.9647E-004  
  510.50  3.4555E-004  
  511.00  3.3135E-004  
  511.50  3.8857E-004  
  512.00  3.8107E-004  
  512.50  3.0229E-004  
  513.00  1.8369E-004  
  513.50  1.2142E-004  
  514.00  1.6430E-004  
  514.50  2.6181E-004  
  515.00  2.9374E-004  
  515.50  3.2915E-004  
  516.00  3.0332E-004  
  516.50  3.3456E-004  
  517.00  3.4151E-004  
  517.50  2.9597E-004  
  518.00  3.1450E-004  
  518.50  3.3571E-004  
  519.00  3.7852E-004  
  519.50  3.0462E-004  
  520.00  2.8782E-004  
  520.50  2.9745E-004  
  521.00  2.5955E-004  
  521.50  2.2691E-004  
  522.00  1.6517E-004  
  522.50  1.9059E-004  
  523.00  2.0450E-004  
  523.50  3.0150E-004  
  524.00  2.8069E-004  
  524.50  2.0986E-004  
  525.00  9.6965E-005  
  525.50  6.5790E-005  
  526.00  1.8932E-004  
  526.50  3.2490E-004  
  527.00  4.8694E-004  
  527.50  5.8909E-004  
  528.00  5.0861E-004  
  528.50  2.4077E-004  
  529.00  0.0000E+000  
  529.50  2.4384E-005  
  530.00  2.1612E-004  
  530.50  4.4051E-004  
  531.00  4.9810E-004  
  531.50  5.0560E-004  
  532.00  4.3430E-004  
  532.50  4.2777E-004  
  533.00  3.6490E-004  
  533.50  3.0320E-004  
  534.00  1.2781E-004  
  534.50  6.6923E-005  
  535.00  1.2964E-004  
  535.50  2.3943E-004  
  536.00  2.8460E-004  
  536.50  3.3185E-004  
  537.00  3.3668E-004  
  537.50  2.7595E-004  
  538.00  2.2445E-004  
  538.50  1.4772E-004  
  539.00  1.8093E-004  
  539.50  1.0406E-004  
  540.00  2.0234E-005  
  540.50  1.2334E-004  
  541.00  4.1581E-004  
  541.50  6.6424E-004  
  542.00  6.9913E-004  
  542.50  5.1800E-004  
  543.00  3.6209E-004  
  543.50  3.3307E-004  
  544.00  4.0894E-004  
  544.50  4.9510E-004  
  545.00  5.8774E-004  
  545.50  5.3874E-004  
  546.00  4.8465E-004  
  546.50  3.7362E-004  
  547.00  4.1441E-004  
  547.50  4.7444E-004  
  548.00  5.6270E-004  
  548.50  6.7182E-004  
  549.00  6.4085E-004  
  549.50  7.2440E-004  
  550.00  6.1253E-004  
  550.50  5.5830E-004  
  551.00  4.5952E-004  
  551.50  4.0251E-004  
  552.00  4.1795E-004  
  552.50  4.8811E-004  
  553.00  5.8980E-004  
  553.50  6.5245E-004  
  554.00  6.2692E-004  
  554.50  5.9667E-004  
  555.00  5.2982E-004  
  555.50  6.4099E-004  
  556.00  7.1938E-004  
  556.50  8.8288E-004  
  557.00  9.0287E-004  
  557.50  9.2482E-004  
  558.00  8.0228E-004  
  558.50  7.7346E-004  
  559.00  7.4733E-004  
  559.50  7.2610E-004  
  560.00  7.4498E-004  
  560.50  6.6494E-004  
  561.00  6.7230E-004  
  561.50  6.5248E-004  
  562.00  7.0174E-004  
  562.50  7.5148E-004  
  563.00  8.8306E-004  
  563.50  1.0348E-003  
  564.00  1.1457E-003  
  564.50  1.2296E-003  
  565.00  1.1410E-003  
  565.50  1.1020E-003  
  566.00  1.0625E-003  
  566.50  1.1609E-003  
  567.00  1.3668E-003  
  567.50  1.5428E-003  
  568.00  1.6479E-003  
  568.50  1.6109E-003  
  569.00  1.5194E-003  
  569.50  1.4339E-003  
  570.00  1.2149E-003  
  570.50  1.1075E-003  
  571.00  1.2191E-003  
  571.50  1.5268E-003  
  572.00  1.7110E-003  
  572.50  1.6506E-003  
  573.00  1.4919E-003  
  573.50  1.4322E-003  
  574.00  1.6465E-003  
  574.50  1.8190E-003  
  575.00  1.9630E-003  
  575.50  2.0387E-003  
  576.00  2.1210E-003  
  576.50  2.3468E-003  
  577.00  2.3245E-003  
  577.50  2.3846E-003  
  578.00  2.3857E-003  
  578.50  2.4802E-003  
  579.00  2.5395E-003  
  579.50  2.4036E-003  
  580.00  2.3457E-003  
  580.50  2.4607E-003  
  581.00  2.7087E-003  
  581.50  2.9701E-003  
  582.00  3.0554E-003  
  582.50  3.2475E-003  
  583.00  3.3215E-003  
  583.50  3.5700E-003  
  584.00  3.7185E-003  
  584.50  3.9105E-003  
  585.00  3.9970E-003  
  585.50  4.3102E-003  
  586.00  4.6187E-003  
  586.50  5.0557E-003  
  587.00  5.3597E-003  
  587.50  5.6549E-003  
  588.00  5.6785E-003  
  588.50  5.7423E-003  
  589.00  5.9907E-003  
  589.50  6.4860E-003  
  590.00  7.0288E-003  
  590.50  7.2208E-003  
  591.00  7.6272E-003  
  591.50  8.0980E-003  
  592.00  8.6730E-003  
  592.50  9.1184E-003  
  593.00  9.5470E-003  
  593.50  1.0097E-002  
  594.00  1.0537E-002  
  594.50  1.0873E-002  
  595.00  1.1299E-002  
  595.50  1.1930E-002  
  596.00  1.2416E-002  
  596.50  1.3063E-002  
  597.00  1.3675E-002  
  597.50  1.4355E-002  
  598.00  1.5128E-002  
  598.50  1.5704E-002  
  599.00  1.6275E-002  
  599.50  1.6815E-002  
  600.00  1.7565E-002  
  600.50  1.8733E-002  
  601.00  1.9966E-002  
  601.50  2.1048E-002  
  602.00  2.2077E-002  
  602.50  2.2817E-002  
  603.00  2.3596E-002  
  603.50  2.4197E-002  
  604.00  2.5017E-002  
  604.50  2.5929E-002  
  605.00  2.7168E-002  
  605.50  2.8402E-002  
  606.00  2.9657E-002  
  606.50  3.0704E-002  
  607.00  3.1927E-002  
  607.50  3.3060E-002  
  608.00  3.4198E-002  
  608.50  3.5570E-002  
  609.00  3.7089E-002  
  609.50  3.8690E-002  
  610.00  3.9981E-002  
  610.50  4.1092E-002  
  611.00  4.2365E-002  
  611.50  4.3573E-002  
  612.00  4.5051E-002  
  612.50  4.6425E-002  
  613.00  4.7826E-002  
  613.50  4.9150E-002  
  614.00  5.0326E-002  
  614.50  5.1790E-002  
  615.00  5.3148E-002  
  615.50  5.4680E-002  
  616.00  5.5931E-002  
  616.50  5.7292E-002  
  617.00  5.8707E-002  
  617.50  6.0171E-002  
  618.00  6.1684E-002  
  618.50  6.2942E-002  
  619.00  6.3966E-002  
  619.50  6.5183E-002  
  620.00  6.6680E-002  
  620.50  6.8246E-002  
  621.00  6.9463E-002  
  621.50  7.0402E-002  
  622.00  7.1634E-002  
  622.50  7.3156E-002  
  623.00  7.4580E-002  
  623.50  7.5954E-002  
  624.00  7.6993E-002  
  624.50  7.7793E-002  
  625.00  7.8637E-002  
  625.50  7.9554E-002  
  626.00  8.1071E-002  
  626.50  8.2366E-002  
  627.00  8.3615E-002  
  627.50  8.4807E-002  
  628.00  8.5976E-002  
  628.50  8.7600E-002  
  629.00  8.8830E-002  
  629.50  9.0199E-002  
  630.00  9.1057E-002  
  630.50  9.1947E-002  
  631.00  9.2797E-002  
  631.50  9.3973E-002  
  632.00  9.5164E-002  
  632.50  9.6399E-002  
  633.00  9.7170E-002  
  633.50  9.7961E-002  
  634.00  9.8679E-002  
  634.50  9.9496E-002  
  635.00  1.0051E-001  
  635.50  1.0145E-001  
  636.00  1.0237E-001  
  636.50  1.0337E-001  
  637.00  1.0445E-001  
  637.50  1.0555E-001  
  638.00  1.0612E-001  
  638.50  1.0705E-001  
  639.00  1.0816E-001  
  639.50  1.0913E-001  
  640.00  1.0939E-001  
  640.50  1.0960E-001  
  641.00  1.0997E-001  
  641.50  1.1086E-001  
  642.00  1.1197E-001  
  642.50  1.1307E-001  
  643.00  1.1368E-001  
  643.50  1.1428E-001  
  644.00  1.1501E-001  
  644.50  1.1546E-001  
  645.00  1.1581E-001  
  645.50  1.1612E-001  
  646.00  1.1720E-001  
  646.50  1.1820E-001  
  647.00  1.1888E-001  
  647.50  1.1942E-001  
  648.00  1.1969E-001  
  648.50  1.2027E-001  
  649.00  1.2063E-001  
  649.50  1.2095E-001  
  650.00  1.2123E-001  
  650.50  1.2183E-001  
  651.00  1.2247E-001  
  651.50  1.2310E-001  
  652.00  1.2351E-001  
  652.50  1.2409E-001  
  653.00  1.2435E-001  
  653.50  1.2467E-001  
  654.00  1.2518E-001  
  654.50  1.2631E-001  
  655.00  1.2746E-001  
  655.50  1.2866E-001  
  656.00  1.2891E-001  
  656.50  1.2911E-001  
  657.00  1.2849E-001  
  657.50  1.2875E-001  
  658.00  1.2915E-001  
  658.50  1.3013E-001  
  659.00  1.3069E-001  
  659.50  1.3099E-001  
  660.00  1.3099E-001  
  660.50  1.3128E-001  
  661.00  1.3202E-001  
  661.50  1.3312E-001  
  662.00  1.3371E-001  
  662.50  1.3390E-001  
  663.00  1.3369E-001  
  663.50  1.3414E-001  
  664.00  1.3433E-001  
  664.50  1.3469E-001  
  665.00  1.3484E-001  
  665.50  1.3502E-001  
  666.00  1.3472E-001  
  666.50  1.3481E-001  
  667.00  1.3514E-001  
  667.50  1.3602E-001  
  668.00  1.3680E-001  
  668.50  1.3733E-001  
  669.00  1.3774E-001  
  669.50  1.3780E-001  
  670.00  1.3817E-001  
  670.50  1.3831E-001  
  671.00  1.3828E-001  
  671.50  1.3822E-001  
  672.00  1.3823E-001  
  672.50  1.3856E-001  
  673.00  1.3906E-001  
  673.50  1.3916E-001  
  674.00  1.3916E-001  
  674.50  1.3948E-001  
  675.00  1.4018E-001  
  675.50  1.4069E-001  
  676.00  1.4087E-001  
  676.50  1.4091E-001  
  677.00  1.4089E-001  
  677.50  1.4094E-001  
  678.00  1.4103E-001  
  678.50  1.4177E-001  
  679.00  1.4211E-001  
  679.50  1.4265E-001  
  680.00  1.4279E-001  
  680.50  1.4326E-001  
  681.00  1.4347E-001  
  681.50  1.4340E-001  
  682.00  1.4305E-001  
  682.50  1.4321E-001  
  683.00  1.4393E-001  
  683.50  1.4494E-001  
  684.00  1.4494E-001  
  684.50  1.4447E-001  
  685.00  1.4374E-001  
  685.50  1.4415E-001  
  686.00  1.4422E-001  
  686.50  1.4463E-001  
  687.00  1.4490E-001  
  687.50  1.4579E-001  
  688.00  1.4628E-001  
  688.50  1.4651E-001  
  689.00  1.4605E-001  
  689.50  1.4588E-001  
  690.00  1.4621E-001  
  690.50  1.4713E-001  
  691.00  1.4719E-001  
  691.50  1.4669E-001  
  692.00  1.4657E-001  
  692.50  1.4683E-001  
  693.00  1.4722E-001  
  693.50  1.4758E-001  
  694.00  1.4809E-001  
  694.50  1.4776E-001  
  695.00  1.4740E-001  
  695.50  1.4736E-001  
  696.00  1.4846E-001  
  696.50  1.4941E-001  
  697.00  1.4981E-001  
  697.50  1.4982E-001  
  698.00  1.4982E-001  
  698.50  1.4980E-001  
  699.00  1.4960E-001  
  699.50  1.4928E-001  
  700.00  1.4938E-001  
  700.50  1.4977E-001  
  701.00  1.5020E-001  
  701.50  1.5034E-001  
  702.00  1.5056E-001  
  702.50  1.5073E-001  
  703.00  1.5111E-001  
  703.50  1.5192E-001  
  704.00  1.5289E-001  
  704.50  1.5364E-001  
  705.00  1.5332E-001  
  705.50  1.5300E-001  
  706.00  1.5204E-001  
  706.50  1.5210E-001  
  707.00  1.5204E-001  
  707.50  1.5297E-001  
  708.00  1.5363E-001  
  708.50  1.5432E-001  
  709.00  1.5461E-001  
  709.50  1.5430E-001  
  710.00  1.5416E-001  
  710.50  1.5432E-001  
  711.00  1.5380E-001  
  711.50  1.5325E-001  
  712.00  1.5333E-001  
  712.50  1.5452E-001  
  713.00  1.5548E-001  
  713.50  1.5633E-001  
  714.00  1.5676E-001  
  714.50  1.5719E-001  
  715.00  1.5718E-001  
  715.50  1.5739E-001  
  716.00  1.5710E-001  
  716.50  1.5668E-001  
  717.00  1.5634E-001  
  717.50  1.5678E-001  
  718.00  1.5715E-001  
  718.50  1.5710E-001  
  719.00  1.5680E-001  
  719.50  1.5705E-001  
  720.00  1.5735E-001  
  720.50  1.5761E-001  
  721.00  1.5800E-001  
  721.50  1.5834E-001  
  722.00  1.5852E-001  
  722.50  1.5883E-001  
  723.00  1.5923E-001  
  723.50  1.5933E-001  
  724.00  1.5958E-001  
  724.50  1.6002E-001  
  725.00  1.6036E-001  
  725.50  1.6045E-001  
  726.00  1.6040E-001  
  726.50  1.6074E-001  
  727.00  1.6108E-001  
  727.50  1.6153E-001  
  728.00  1.6166E-001  
  728.50  1.6194E-001  
  729.00  1.6259E-001  
  729.50  1.6308E-001  
  730.00  1.6366E-001  
  730.50  1.6299E-001  
  731.00  1.6215E-001  
  731.50  1.6153E-001  
  732.00  1.6126E-001  
  732.50  1.6157E-001  
  733.00  1.6153E-001  
  733.50  1.6186E-001  
  734.00  1.6270E-001  
  734.50  1.6403E-001  
  735.00  1.6453E-001  
  735.50  1.6360E-001  
  736.00  1.6302E-001  
  736.50  1.6337E-001  
  737.00  1.6425E-001  
  737.50  1.6495E-001  
  738.00  1.6473E-001  
  738.50  1.6415E-001  
  739.00  1.6390E-001  
  739.50  1.6409E-001  
  740.00  1.6427E-001  
  740.50  1.6385E-001  
  741.00  1.6370E-001  
  741.50  1.6416E-001  
  742.00  1.6464E-001  
  742.50  1.6503E-001  
  743.00  1.6531E-001  
  743.50  1.6609E-001  
  744.00  1.6693E-001  
  744.50  1.6739E-001  
  745.00  1.6738E-001  
  745.50  1.6725E-001  
  746.00  1.6706E-001  
  746.50  1.6796E-001  
  747.00  1.6851E-001  
  747.50  1.6880E-001  
  748.00  1.6849E-001  
  748.50  1.6883E-001  
  749.00  1.6944E-001  
  749.50  1.6926E-001  
  750.00  1.6856E-001  
  750.50  1.6833E-001  
  751.00  1.6878E-001  
  751.50  1.6899E-001  
  752.00  1.6884E-001  
  752.50  1.6903E-001  
  753.00  1.6922E-001  
  753.50  1.6956E-001  
  754.00  1.6995E-001  
  754.50  1.7003E-001  
  755.00  1.7012E-001  
  755.50  1.7028E-001  
  756.00  1.7163E-001  
  756.50  1.7259E-001  
  757.00  1.7322E-001  
  757.50  1.7258E-001  
  758.00  1.7164E-001  
  758.50  1.7116E-001  
  759.00  1.7084E-001  
  759.50  1.7046E-001  
  760.00  1.7004E-001  
  760.50  1.7019E-001  
  761.00  1.7075E-001  
  761.50  1.7137E-001  
  762.00  1.7220E-001  
  762.50  1.7320E-001  
  763.00  1.7405E-001  
  763.50  1.7381E-001  
  764.00  1.7292E-001  
  764.50  1.7264E-001  
  765.00  1.7324E-001  
  765.50  1.7440E-001  
  766.00  1.7475E-001  
  766.50  1.7408E-001  
  767.00  1.7466E-001  
  767.50  1.7582E-001  
  768.00  1.7606E-001  
  768.50  1.7504E-001  
  769.00  1.7447E-001  
  769.50  1.7385E-001  
  770.00  1.7373E-001  
  770.50  1.7385E-001  
  771.00  1.7457E-001  
  771.50  1.7526E-001  
  772.00  1.7594E-001  
  772.50  1.7592E-001  
  773.00  1.7570E-001  
  773.50  1.7669E-001  
  774.00  1.7816E-001  
  774.50  1.7785E-001  
  775.00  1.7763E-001  
  775.50  1.7691E-001  
  776.00  1.7664E-001  
  776.50  1.7636E-001  
  777.00  1.7666E-001  
  777.50  1.7849E-001  
  778.00  1.7974E-001  
  778.50  1.7937E-001  
  779.00  1.7801E-001  
  779.50  1.7854E-001  
  780.00  1.7997E-001  
  780.50  1.8069E-001  
  781.00  1.7948E-001  
  781.50  1.7906E-001  
  782.00  1.7918E-001  
  782.50  1.8057E-001  
  783.00  1.8161E-001  
  783.50  1.8119E-001  
  784.00  1.8062E-001  
  784.50  1.8105E-001  
  785.00  1.8135E-001  
  785.50  1.8189E-001  
  786.00  1.8167E-001  
  786.50  1.8213E-001  
  787.00  1.8160E-001  
  787.50  1.8168E-001  
  788.00  1.8131E-001  
  788.50  1.8066E-001  
  789.00  1.8173E-001  
  789.50  1.8296E-001  
  790.00  1.8324E-001  
  790.50  1.8248E-001  
  791.00  1.8338E-001  
  791.50  1.8564E-001  
  792.00  1.8697E-001  
  792.50  1.8714E-001  
  793.00  1.8603E-001  
  793.50  1.8399E-001  
  794.00  1.8438E-001  
  794.50  1.8518E-001  
  795.00  1.8586E-001  
  795.50  1.8552E-001  
  796.00  1.8515E-001  
  796.50  1.8521E-001  
  797.00  1.8602E-001  
  797.50  1.8776E-001  
  798.00  1.8838E-001  
  798.50  1.8912E-001  
  799.00  1.8861E-001  
  799.50  1.8677E-001  
  800.00  1.8540E-001  
  800.50  1.8588E-001  
  801.00  1.8599E-001  
  801.50  1.8521E-001  
  802.00  1.8451E-001  
  802.50  1.8584E-001  
  803.00  1.8782E-001  
  803.50  1.8935E-001  
  804.00  1.8936E-001  
  804.50  1.9005E-001  
  805.00  1.8928E-001  
  805.50  1.8936E-001  
  806.00  1.8907E-001  
  806.50  1.8889E-001  
  807.00  1.8780E-001  
  807.50  1.8857E-001  
  808.00  1.8843E-001  
  808.50  1.8989E-001  
  809.00  1.9153E-001  
  809.50  1.9266E-001  
  810.00  1.9189E-001  
  810.50  1.9143E-001  
  811.00  1.9205E-001  
  811.50  1.9281E-001  
  812.00  1.9435E-001  
  812.50  1.9530E-001  
  813.00  1.9401E-001  
  813.50  1.9262E-001  
  814.00  1.9236E-001  
  814.50  1.9405E-001  
  815.00  1.9480E-001  
  815.50  1.9511E-001  
  816.00  1.9569E-001  
  816.50  1.9688E-001  
  817.00  1.9710E-001  
  817.50  1.9548E-001  
  818.00  1.9573E-001  
  818.50  1.9491E-001  
  819.00  1.9433E-001  
  819.50  1.9329E-001  
  820.00  1.9415E-001  
  820.50  1.9614E-001  
  821.00  1.9699E-001  
  821.50  1.9540E-001  
  822.00  1.9400E-001  
  822.50  1.9411E-001  
  823.00  1.9554E-001  
  823.50  1.9599E-001  
  824.00  1.9632E-001  
  824.50  1.9452E-001  
  825.00  1.9174E-001  
  825.50  1.9239E-001  
  826.00  1.9361E-001  
  826.50  1.9403E-001  
  827.00  1.9368E-001  
  827.50  1.9545E-001  
  828.00  1.9896E-001  
  828.50  2.0080E-001  
  829.00  1.9805E-001  
  829.50  1.9497E-001  
  830.00  1.9277E-001  
  830.50  1.9272E-001  
  831.00  1.9518E-001  
  831.50  1.9899E-001  
  832.00  1.9930E-001  
  832.50  1.9821E-001  
  833.00  1.9837E-001  
  833.50  1.9863E-001  
  834.00  1.9880E-001  
  834.50  2.0092E-001  
  835.00  1.9960E-001  
  835.50  1.9836E-001  
  836.00  1.9896E-001  
  836.50  2.0236E-001  
  837.00  2.0591E-001  
  837.50  2.0634E-001  
  838.00  2.0355E-001  
  838.50  2.0057E-001  
  839.00  1.9930E-001  
  839.50  2.0170E-001  
  840.00  2.0583E-001  
  840.50  2.0558E-001  
  841.00  2.0405E-001  
  841.50  2.0091E-001  
  842.00  2.0011E-001  
  842.50  1.9928E-001  
  843.00  2.0066E-001  
  843.50  2.0037E-001  
  844.00  1.9876E-001  
  844.50  1.9907E-001  
  845.00  2.0168E-001  
  845.50  2.0195E-001  
  846.00  2.0065E-001  
  846.50  1.9910E-001  
  847.00  1.9987E-001  
  847.50  2.0077E-001  
  848.00  2.0190E-001  
  848.50  2.0275E-001  
  849.00  2.0370E-001  
  849.50  2.0322E-001  
  850.00  2.0449E-001  
  850.50  2.0568E-001  
  851.00  2.0612E-001  
  851.50  2.0504E-001  
  852.00  2.0553E-001  
  852.50  2.0458E-001  
  853.00  2.0615E-001  
  853.50  2.0870E-001  
  854.00  2.0699E-001  
  854.50  2.0400E-001  
  855.00  2.0313E-001  
  855.50  2.0174E-001  
  856.00  2.0360E-001  
  856.50  2.0750E-001  
  857.00  2.0930E-001  
  857.50  2.0578E-001  
  858.00  2.0412E-001  
  858.50  2.0367E-001  
  859.00  2.0489E-001  
  859.50  2.0693E-001  
  860.00  2.0715E-001  
  860.50  2.0654E-001  
  861.00  2.0754E-001  
  861.50  2.0988E-001  
  862.00  2.1020E-001  
  862.50  2.1014E-001  
  863.00  2.1096E-001  
  863.50  2.1246E-001  
  864.00  2.1104E-001  
  864.50  2.0721E-001  
  865.00  2.0695E-001  
  865.50  2.0876E-001  
  866.00  2.0993E-001  
  866.50  2.1207E-001  
  867.00  2.1289E-001  
  867.50  2.1396E-001  
  868.00  2.1005E-001  
  868.50  2.0766E-001  
  869.00  2.0926E-001  
  869.50  2.1296E-001  
  870.00  2.1399E-001  
  870.50  2.1264E-001  
  871.00  2.0760E-001  
  871.50  2.0836E-001  
  872.00  2.0801E-001  
  872.50  2.0580E-001  
  873.00  2.0460E-001  
  873.50  2.0412E-001  
  874.00  2.0656E-001  
  874.50  2.0989E-001  
  875.00  2.0703E-001  
  875.50  2.0247E-001  
  876.00  2.0262E-001  
  876.50  2.0667E-001  
  877.00  2.1071E-001  
  877.50  2.0846E-001  
  878.00  2.0347E-001  
  878.50  2.0828E-001  
  879.00  2.1375E-001  
  879.50  2.1321E-001  
  880.00  2.1036E-001  
  880.50  2.1172E-001  
  881.00  2.1502E-001  
  881.50  2.1349E-001  
  882.00  2.0858E-001  
  882.50  2.0834E-001  
  883.00  2.1073E-001  
  883.50  2.1365E-001  
  884.00  2.1474E-001  
  884.50  2.1326E-001  
  885.00  2.1258E-001  
  885.50  2.1336E-001  
  886.00  2.1419E-001  
  886.50  2.1498E-001  
  887.00  2.1394E-001  
  887.50  2.1406E-001  
  888.00  2.1599E-001  
  888.50  2.1872E-001  
  889.00  2.1760E-001  
  889.50  2.1363E-001  
  890.00  2.1232E-001  
  890.50  2.1355E-001  
  891.00  2.1740E-001  
  891.50  2.1513E-001  
  892.00  2.1097E-001  
  892.50  2.0976E-001  
  893.00  2.1281E-001  
  893.50  2.0947E-001  
  894.00  2.0673E-001  
  894.50  2.0870E-001  
  895.00  2.1375E-001  
  895.50  2.1864E-001  
  896.00  2.1790E-001  
  896.50  2.1765E-001  
  897.00  2.2126E-001  
  897.50  2.1880E-001  
  898.00  2.1506E-001  
  898.50  2.1518E-001  
  899.00  2.1559E-001  
  899.50  4.2305E-003  
