
# From lspdd.org
# 
# Name: INC Sylvania A19 Domestique
# Indice spectral Valeur 
# MSI 0.11 
# SLI 0.28 
# IPI 1.28 
# Pourcentage de bleu 3.2 
# Caractéristique Valeur 
# CCT calculée (K) 1660 
# CCT du fabricant (K) 1700 
# Tension (V) 120 
# Puissance (W) 25.0 
# Efficacité lumineuse (Lum/W) ND 
#
# Image: '/app/system/img_2s/2745/medium_image2.jpg?1612236510'
# Image: '/app/system/img_1s/2745/medium_image1.jpg?1612236507'
# 

  273.00  0.0000E+000  
  273.50  0.0000E+000  
  274.00  0.0000E+000  
  274.50  0.0000E+000  
  275.00  0.0000E+000  
  275.50  0.0000E+000  
  276.00  0.0000E+000  
  276.50  0.0000E+000  
  277.00  0.0000E+000  
  277.50  0.0000E+000  
  278.00  0.0000E+000  
  278.50  0.0000E+000  
  279.00  0.0000E+000  
  279.50  0.0000E+000  
  280.00  0.0000E+000  
  280.50  0.0000E+000  
  281.00  0.0000E+000  
  281.50  0.0000E+000  
  282.00  0.0000E+000  
  282.50  0.0000E+000  
  283.00  0.0000E+000  
  283.50  0.0000E+000  
  284.00  0.0000E+000  
  284.50  0.0000E+000  
  285.00  0.0000E+000  
  285.50  0.0000E+000  
  286.00  0.0000E+000  
  286.50  0.0000E+000  
  287.00  0.0000E+000  
  287.50  0.0000E+000  
  288.00  0.0000E+000  
  288.50  0.0000E+000  
  289.00  0.0000E+000  
  289.50  0.0000E+000  
  290.00  0.0000E+000  
  290.50  0.0000E+000  
  291.00  0.0000E+000  
  291.50  0.0000E+000  
  292.00  0.0000E+000  
  292.50  0.0000E+000  
  293.00  0.0000E+000  
  293.50  0.0000E+000  
  294.00  0.0000E+000  
  294.50  0.0000E+000  
  295.00  0.0000E+000  
  295.50  0.0000E+000  
  296.00  0.0000E+000  
  296.50  0.0000E+000  
  297.00  0.0000E+000  
  297.50  0.0000E+000  
  298.00  0.0000E+000  
  298.50  0.0000E+000  
  299.00  0.0000E+000  
  299.50  0.0000E+000  
  300.00  6.5954E-005  
  300.50  2.6881E-004  
  301.00  4.3966E-004  
  301.50  5.6936E-004  
  302.00  7.3293E-004  
  302.50  7.5128E-004  
  303.00  5.9084E-004  
  303.50  4.6083E-004  
  304.00  2.4453E-004  
  304.50  3.3251E-004  
  305.00  6.3072E-004  
  305.50  9.7265E-004  
  306.00  1.0329E-003  
  306.50  7.3357E-004  
  307.00  3.7257E-004  
  307.50  2.2154E-004  
  308.00  3.0532E-004  
  308.50  5.3400E-004  
  309.00  7.4954E-004  
  309.50  7.8212E-004  
  310.00  9.2137E-004  
  310.50  9.4459E-004  
  311.00  9.4822E-004  
  311.50  6.4212E-004  
  312.00  3.4468E-004  
  312.50  3.6793E-004  
  313.00  1.5747E-004  
  313.50  3.7052E-004  
  314.00  6.3497E-004  
  314.50  4.9161E-004  
  315.00  4.0187E-004  
  315.50  2.8998E-004  
  316.00  0.0000E+000  
  316.50  0.0000E+000  
  317.00  0.0000E+000  
  317.50  0.0000E+000  
  318.00  0.0000E+000  
  318.50  4.3424E-005  
  319.00  1.5117E-004  
  319.50  3.2742E-004  
  320.00  6.9127E-004  
  320.50  7.8650E-004  
  321.00  1.1328E-003  
  321.50  9.3042E-004  
  322.00  4.1809E-004  
  322.50  1.8905E-004  
  323.00  0.0000E+000  
  323.50  0.0000E+000  
  324.00  0.0000E+000  
  324.50  0.0000E+000  
  325.00  0.0000E+000  
  325.50  2.4057E-004  
  326.00  3.0942E-004  
  326.50  3.9518E-004  
  327.00  3.0127E-004  
  327.50  2.3336E-004  
  328.00  1.9242E-004  
  328.50  0.0000E+000  
  329.00  0.0000E+000  
  329.50  0.0000E+000  
  330.00  0.0000E+000  
  330.50  0.0000E+000  
  331.00  4.7783E-005  
  331.50  1.1793E-005  
  332.00  0.0000E+000  
  332.50  4.3752E-006  
  333.00  2.4503E-006  
  333.50  1.2213E-004  
  334.00  2.8221E-004  
  334.50  4.6629E-004  
  335.00  6.7686E-004  
  335.50  1.0027E-003  
  336.00  1.0205E-003  
  336.50  6.1165E-004  
  337.00  4.3680E-004  
  337.50  2.6146E-005  
  338.00  1.1888E-004  
  338.50  3.5746E-004  
  339.00  4.8350E-004  
  339.50  6.2443E-004  
  340.00  6.9317E-004  
  340.50  7.9170E-004  
  341.00  8.5967E-004  
  341.50  6.2480E-004  
  342.00  4.5689E-004  
  342.50  3.5809E-004  
  343.00  9.3146E-005  
  343.50  3.0485E-004  
  344.00  5.0371E-004  
  344.50  6.3478E-004  
  345.00  1.1463E-003  
  345.50  1.3696E-003  
  346.00  1.4234E-003  
  346.50  1.2768E-003  
  347.00  7.7976E-004  
  347.50  5.5404E-004  
  348.00  3.6042E-004  
  348.50  6.1079E-004  
  349.00  8.0340E-004  
  349.50  8.5859E-004  
  350.00  8.5552E-004  
  350.50  7.4118E-004  
  351.00  9.6131E-004  
  351.50  9.5805E-004  
  352.00  1.0835E-003  
  352.50  9.4084E-004  
  353.00  8.3692E-004  
  353.50  8.5642E-004  
  354.00  7.7974E-004  
  354.50  9.2039E-004  
  355.00  9.3926E-004  
  355.50  8.9955E-004  
  356.00  8.9056E-004  
  356.50  6.9918E-004  
  357.00  4.7017E-004  
  357.50  3.7071E-004  
  358.00  3.0795E-004  
  358.50  3.2001E-004  
  359.00  2.4985E-004  
  359.50  4.1718E-004  
  360.00  5.8794E-004  
  360.50  1.0726E-003  
  361.00  1.3781E-003  
  361.50  1.1191E-003  
  362.00  8.0330E-004  
  362.50  4.0324E-004  
  363.00  2.9649E-004  
  363.50  5.1115E-004  
  364.00  5.4326E-004  
  364.50  6.6942E-004  
  365.00  6.6935E-004  
  365.50  7.0525E-004  
  366.00  8.7499E-004  
  366.50  8.0026E-004  
  367.00  8.0311E-004  
  367.50  5.9131E-004  
  368.00  2.4205E-004  
  368.50  3.5450E-004  
  369.00  3.6886E-004  
  369.50  4.7682E-004  
  370.00  7.4705E-004  
  370.50  5.9103E-004  
  371.00  6.8074E-004  
  371.50  7.5058E-004  
  372.00  8.2903E-004  
  372.50  6.7837E-004  
  373.00  5.8419E-004  
  373.50  3.7886E-004  
  374.00  3.1648E-004  
  374.50  5.3754E-004  
  375.00  6.7594E-004  
  375.50  9.2268E-004  
  376.00  9.2437E-004  
  376.50  9.7358E-004  
  377.00  8.7396E-004  
  377.50  6.9731E-004  
  378.00  7.9967E-004  
  378.50  7.7215E-004  
  379.00  7.6396E-004  
  379.50  9.0662E-004  
  380.00  8.3492E-004  
  380.50  1.0284E-003  
  381.00  1.2120E-003  
  381.50  1.2173E-003  
  382.00  1.2223E-003  
  382.50  9.5351E-004  
  383.00  7.5287E-004  
  383.50  7.4095E-004  
  384.00  7.9233E-004  
  384.50  8.6698E-004  
  385.00  9.8163E-004  
  385.50  6.9997E-004  
  386.00  6.3002E-004  
  386.50  6.6772E-004  
  387.00  7.5038E-004  
  387.50  8.8740E-004  
  388.00  9.3846E-004  
  388.50  7.8227E-004  
  389.00  7.3783E-004  
  389.50  5.6775E-004  
  390.00  3.1479E-004  
  390.50  1.2031E-004  
  391.00  1.4729E-004  
  391.50  3.6678E-004  
  392.00  7.8525E-004  
  392.50  1.0957E-003  
  393.00  1.1112E-003  
  393.50  1.1001E-003  
  394.00  8.8635E-004  
  394.50  7.3285E-004  
  395.00  7.3359E-004  
  395.50  8.0732E-004  
  396.00  7.7181E-004  
  396.50  7.7086E-004  
  397.00  7.5757E-004  
  397.50  5.2424E-004  
  398.00  4.0458E-004  
  398.50  3.9322E-004  
  399.00  8.4326E-004  
  399.50  1.4333E-003  
  400.00  1.6900E-003  
  400.50  1.5046E-003  
  401.00  1.1097E-003  
  401.50  1.1454E-003  
  402.00  1.1959E-003  
  402.50  1.1679E-003  
  403.00  8.0449E-004  
  403.50  3.9155E-004  
  404.00  2.5139E-004  
  404.50  4.6574E-004  
  405.00  9.3156E-004  
  405.50  1.1508E-003  
  406.00  1.1144E-003  
  406.50  1.0800E-003  
  407.00  8.5470E-004  
  407.50  9.6376E-004  
  408.00  9.5115E-004  
  408.50  8.7621E-004  
  409.00  8.5168E-004  
  409.50  9.8689E-004  
  410.00  1.0417E-003  
  410.50  1.0580E-003  
  411.00  8.4883E-004  
  411.50  6.5575E-004  
  412.00  5.5203E-004  
  412.50  5.3424E-004  
  413.00  5.8432E-004  
  413.50  6.8761E-004  
  414.00  7.1061E-004  
  414.50  8.9445E-004  
  415.00  9.2529E-004  
  415.50  8.1153E-004  
  416.00  8.4483E-004  
  416.50  8.4925E-004  
  417.00  9.8240E-004  
  417.50  1.0056E-003  
  418.00  1.0264E-003  
  418.50  9.9998E-004  
  419.00  9.6194E-004  
  419.50  8.4118E-004  
  420.00  6.6640E-004  
  420.50  5.9646E-004  
  421.00  7.9379E-004  
  421.50  8.9372E-004  
  422.00  9.3469E-004  
  422.50  1.0199E-003  
  423.00  1.2824E-003  
  423.50  1.5389E-003  
  424.00  1.5559E-003  
  424.50  1.3093E-003  
  425.00  1.0805E-003  
  425.50  9.6939E-004  
  426.00  1.0220E-003  
  426.50  1.1278E-003  
  427.00  1.1857E-003  
  427.50  1.2289E-003  
  428.00  1.2636E-003  
  428.50  1.2149E-003  
  429.00  1.2217E-003  
  429.50  1.3449E-003  
  430.00  1.2661E-003  
  430.50  1.3111E-003  
  431.00  1.3149E-003  
  431.50  1.2442E-003  
  432.00  1.2754E-003  
  432.50  1.2396E-003  
  433.00  9.7129E-004  
  433.50  8.7767E-004  
  434.00  6.4583E-004  
  434.50  6.1429E-004  
  435.00  6.0327E-004  
  435.50  7.0278E-004  
  436.00  8.3971E-004  
  436.50  1.1784E-003  
  437.00  1.2672E-003  
  437.50  1.1929E-003  
  438.00  1.1774E-003  
  438.50  9.8616E-004  
  439.00  9.9922E-004  
  439.50  1.0770E-003  
  440.00  1.0375E-003  
  440.50  1.3676E-003  
  441.00  1.3697E-003  
  441.50  1.2758E-003  
  442.00  1.0746E-003  
  442.50  7.5453E-004  
  443.00  9.2571E-004  
  443.50  1.0142E-003  
  444.00  1.2378E-003  
  444.50  1.4363E-003  
  445.00  1.5233E-003  
  445.50  1.7210E-003  
  446.00  1.7216E-003  
  446.50  1.5580E-003  
  447.00  1.3080E-003  
  447.50  1.2843E-003  
  448.00  1.3699E-003  
  448.50  1.6029E-003  
  449.00  1.6949E-003  
  449.50  1.4674E-003  
  450.00  1.2103E-003  
  450.50  1.2263E-003  
  451.00  1.4089E-003  
  451.50  1.7528E-003  
  452.00  2.0372E-003  
  452.50  1.9969E-003  
  453.00  1.9002E-003  
  453.50  1.8045E-003  
  454.00  1.7705E-003  
  454.50  1.7768E-003  
  455.00  1.7201E-003  
  455.50  1.6057E-003  
  456.00  1.6223E-003  
  456.50  1.5996E-003  
  457.00  1.6027E-003  
  457.50  1.4499E-003  
  458.00  1.4411E-003  
  458.50  1.8662E-003  
  459.00  2.1835E-003  
  459.50  2.2771E-003  
  460.00  2.0836E-003  
  460.50  1.8174E-003  
  461.00  1.9323E-003  
  461.50  2.0704E-003  
  462.00  2.3564E-003  
  462.50  2.3815E-003  
  463.00  1.9955E-003  
  463.50  1.7452E-003  
  464.00  1.7328E-003  
  464.50  1.8755E-003  
  465.00  2.0383E-003  
  465.50  1.9815E-003  
  466.00  1.8840E-003  
  466.50  1.9275E-003  
  467.00  2.1754E-003  
  467.50  2.4853E-003  
  468.00  2.7047E-003  
  468.50  2.8390E-003  
  469.00  2.7597E-003  
  469.50  2.6136E-003  
  470.00  2.6993E-003  
  470.50  2.6949E-003  
  471.00  2.7808E-003  
  471.50  2.8252E-003  
  472.00  2.8396E-003  
  472.50  2.9119E-003  
  473.00  2.9224E-003  
  473.50  2.8889E-003  
  474.00  2.9286E-003  
  474.50  3.0202E-003  
  475.00  3.0488E-003  
  475.50  3.2545E-003  
  476.00  3.2768E-003  
  476.50  3.4716E-003  
  477.00  3.5171E-003  
  477.50  3.5337E-003  
  478.00  3.5941E-003  
  478.50  3.5600E-003  
  479.00  3.7371E-003  
  479.50  3.8743E-003  
  480.00  4.0887E-003  
  480.50  4.0550E-003  
  481.00  3.8884E-003  
  481.50  3.7645E-003  
  482.00  3.9070E-003  
  482.50  4.1542E-003  
  483.00  4.3288E-003  
  483.50  4.5509E-003  
  484.00  4.7121E-003  
  484.50  4.9509E-003  
  485.00  5.0067E-003  
  485.50  4.9116E-003  
  486.00  4.8142E-003  
  486.50  4.7752E-003  
  487.00  4.8963E-003  
  487.50  5.0798E-003  
  488.00  5.2897E-003  
  488.50  5.4793E-003  
  489.00  5.5602E-003  
  489.50  5.5942E-003  
  490.00  5.5424E-003  
  490.50  5.5453E-003  
  491.00  5.6050E-003  
  491.50  5.8585E-003  
  492.00  6.0257E-003  
  492.50  6.2111E-003  
  493.00  6.2901E-003  
  493.50  6.3145E-003  
  494.00  6.3114E-003  
  494.50  6.3492E-003  
  495.00  6.4673E-003  
  495.50  6.5693E-003  
  496.00  6.5490E-003  
  496.50  6.5724E-003  
  497.00  6.7491E-003  
  497.50  7.0478E-003  
  498.00  7.3343E-003  
  498.50  7.5095E-003  
  499.00  7.5574E-003  
  499.50  7.7271E-003  
  500.00  7.9659E-003  
  500.50  8.1860E-003  
  501.00  8.3086E-003  
  501.50  8.2625E-003  
  502.00  8.0594E-003  
  502.50  8.0613E-003  
  503.00  8.3165E-003  
  503.50  8.7303E-003  
  504.00  9.0876E-003  
  504.50  9.1730E-003  
  505.00  9.1325E-003  
  505.50  9.1838E-003  
  506.00  9.3426E-003  
  506.50  9.5417E-003  
  507.00  9.6862E-003  
  507.50  9.7040E-003  
  508.00  9.8975E-003  
  508.50  1.0015E-002  
  509.00  1.0210E-002  
  509.50  1.0284E-002  
  510.00  1.0303E-002  
  510.50  1.0391E-002  
  511.00  1.0440E-002  
  511.50  1.0580E-002  
  512.00  1.0703E-002  
  512.50  1.0962E-002  
  513.00  1.1269E-002  
  513.50  1.1451E-002  
  514.00  1.1628E-002  
  514.50  1.1847E-002  
  515.00  1.2063E-002  
  515.50  1.2348E-002  
  516.00  1.2457E-002  
  516.50  1.2559E-002  
  517.00  1.2785E-002  
  517.50  1.2897E-002  
  518.00  1.3050E-002  
  518.50  1.3151E-002  
  519.00  1.3346E-002  
  519.50  1.3425E-002  
  520.00  1.3581E-002  
  520.50  1.3641E-002  
  521.00  1.3822E-002  
  521.50  1.4077E-002  
  522.00  1.4298E-002  
  522.50  1.4420E-002  
  523.00  1.4409E-002  
  523.50  1.4341E-002  
  524.00  1.4398E-002  
  524.50  1.4677E-002  
  525.00  1.5066E-002  
  525.50  1.5266E-002  
  526.00  1.5539E-002  
  526.50  1.5766E-002  
  527.00  1.6120E-002  
  527.50  1.6456E-002  
  528.00  1.6496E-002  
  528.50  1.6505E-002  
  529.00  1.6538E-002  
  529.50  1.6690E-002  
  530.00  1.6881E-002  
  530.50  1.7110E-002  
  531.00  1.7240E-002  
  531.50  1.7444E-002  
  532.00  1.7661E-002  
  532.50  1.7901E-002  
  533.00  1.8195E-002  
  533.50  1.8352E-002  
  534.00  1.8357E-002  
  534.50  1.8336E-002  
  535.00  1.8452E-002  
  535.50  1.8750E-002  
  536.00  1.9010E-002  
  536.50  1.9274E-002  
  537.00  1.9476E-002  
  537.50  1.9818E-002  
  538.00  2.0105E-002  
  538.50  2.0282E-002  
  539.00  2.0480E-002  
  539.50  2.0757E-002  
  540.00  2.1072E-002  
  540.50  2.1414E-002  
  541.00  2.1634E-002  
  541.50  2.1835E-002  
  542.00  2.1945E-002  
  542.50  2.2204E-002  
  543.00  2.2472E-002  
  543.50  2.2760E-002  
  544.00  2.2793E-002  
  544.50  2.2808E-002  
  545.00  2.3098E-002  
  545.50  2.3459E-002  
  546.00  2.3715E-002  
  546.50  2.3960E-002  
  547.00  2.4139E-002  
  547.50  2.4425E-002  
  548.00  2.4669E-002  
  548.50  2.5016E-002  
  549.00  2.5461E-002  
  549.50  2.5903E-002  
  550.00  2.6138E-002  
  550.50  2.6246E-002  
  551.00  2.6463E-002  
  551.50  2.6725E-002  
  552.00  2.7033E-002  
  552.50  2.7316E-002  
  553.00  2.7586E-002  
  553.50  2.7883E-002  
  554.00  2.8127E-002  
  554.50  2.8346E-002  
  555.00  2.8683E-002  
  555.50  2.9142E-002  
  556.00  2.9496E-002  
  556.50  2.9770E-002  
  557.00  3.0136E-002  
  557.50  3.0557E-002  
  558.00  3.0922E-002  
  558.50  3.0933E-002  
  559.00  3.1029E-002  
  559.50  3.1365E-002  
  560.00  3.1772E-002  
  560.50  3.2249E-002  
  561.00  3.2488E-002  
  561.50  3.2918E-002  
  562.00  3.3305E-002  
  562.50  3.3870E-002  
  563.00  3.4374E-002  
  563.50  3.4819E-002  
  564.00  3.5078E-002  
  564.50  3.5157E-002  
  565.00  3.5478E-002  
  565.50  3.5822E-002  
  566.00  3.6189E-002  
  566.50  3.6352E-002  
  567.00  3.6243E-002  
  567.50  3.6463E-002  
  568.00  3.6919E-002  
  568.50  3.7496E-002  
  569.00  3.8032E-002  
  569.50  3.8304E-002  
  570.00  3.8568E-002  
  570.50  3.8776E-002  
  571.00  3.9178E-002  
  571.50  3.9600E-002  
  572.00  3.9978E-002  
  572.50  4.0187E-002  
  573.00  4.0618E-002  
  573.50  4.1284E-002  
  574.00  4.1926E-002  
  574.50  4.2328E-002  
  575.00  4.2619E-002  
  575.50  4.2869E-002  
  576.00  4.3188E-002  
  576.50  4.3672E-002  
  577.00  4.4199E-002  
  577.50  4.4602E-002  
  578.00  4.4949E-002  
  578.50  4.5460E-002  
  579.00  4.5993E-002  
  579.50  4.6735E-002  
  580.00  4.7466E-002  
  580.50  4.8187E-002  
  581.00  4.8613E-002  
  581.50  4.8852E-002  
  582.00  4.9062E-002  
  582.50  4.9402E-002  
  583.00  4.9793E-002  
  583.50  5.0272E-002  
  584.00  5.0961E-002  
  584.50  5.1555E-002  
  585.00  5.1904E-002  
  585.50  5.2347E-002  
  586.00  5.2831E-002  
  586.50  5.3580E-002  
  587.00  5.4437E-002  
  587.50  5.5100E-002  
  588.00  5.5768E-002  
  588.50  5.6302E-002  
  589.00  5.6830E-002  
  589.50  5.7432E-002  
  590.00  5.7765E-002  
  590.50  5.7914E-002  
  591.00  5.8171E-002  
  591.50  5.8949E-002  
  592.00  5.9865E-002  
  592.50  6.0804E-002  
  593.00  6.1406E-002  
  593.50  6.1667E-002  
  594.00  6.2181E-002  
  594.50  6.3022E-002  
  595.00  6.4031E-002  
  595.50  6.4874E-002  
  596.00  6.5442E-002  
  596.50  6.6168E-002  
  597.00  6.7057E-002  
  597.50  6.7668E-002  
  598.00  6.7937E-002  
  598.50  6.8159E-002  
  599.00  6.8529E-002  
  599.50  6.9230E-002  
  600.00  6.9898E-002  
  600.50  7.0698E-002  
  601.00  7.1280E-002  
  601.50  7.1968E-002  
  602.00  7.2687E-002  
  602.50  7.3398E-002  
  603.00  7.4226E-002  
  603.50  7.4832E-002  
  604.00  7.5327E-002  
  604.50  7.5760E-002  
  605.00  7.6318E-002  
  605.50  7.7229E-002  
  606.00  7.7894E-002  
  606.50  7.8448E-002  
  607.00  7.8769E-002  
  607.50  7.9463E-002  
  608.00  8.0187E-002  
  608.50  8.0794E-002  
  609.00  8.1236E-002  
  609.50  8.1942E-002  
  610.00  8.2922E-002  
  610.50  8.3533E-002  
  611.00  8.4186E-002  
  611.50  8.4774E-002  
  612.00  8.5472E-002  
  612.50  8.5807E-002  
  613.00  8.5836E-002  
  613.50  8.6065E-002  
  614.00  8.6572E-002  
  614.50  8.7118E-002  
  615.00  8.7602E-002  
  615.50  8.7961E-002  
  616.00  8.8183E-002  
  616.50  8.8575E-002  
  617.00  8.9022E-002  
  617.50  8.9731E-002  
  618.00  9.0439E-002  
  618.50  9.1067E-002  
  619.00  9.1524E-002  
  619.50  9.1936E-002  
  620.00  9.2156E-002  
  620.50  9.2314E-002  
  621.00  9.2615E-002  
  621.50  9.3068E-002  
  622.00  9.3994E-002  
  622.50  9.4457E-002  
  623.00  9.4860E-002  
  623.50  9.5086E-002  
  624.00  9.5305E-002  
  624.50  9.5313E-002  
  625.00  9.5546E-002  
  625.50  9.5983E-002  
  626.00  9.6580E-002  
  626.50  9.7006E-002  
  627.00  9.7254E-002  
  627.50  9.7626E-002  
  628.00  9.8071E-002  
  628.50  9.8643E-002  
  629.00  9.8801E-002  
  629.50  9.9128E-002  
  630.00  9.9688E-002  
  630.50  1.0064E-001  
  631.00  1.0132E-001  
  631.50  1.0145E-001  
  632.00  1.0131E-001  
  632.50  1.0136E-001  
  633.00  1.0142E-001  
  633.50  1.0197E-001  
  634.00  1.0272E-001  
  634.50  1.0369E-001  
  635.00  1.0421E-001  
  635.50  1.0434E-001  
  636.00  1.0443E-001  
  636.50  1.0439E-001  
  637.00  1.0434E-001  
  637.50  1.0465E-001  
  638.00  1.0552E-001  
  638.50  1.0635E-001  
  639.00  1.0651E-001  
  639.50  1.0640E-001  
  640.00  1.0695E-001  
  640.50  1.0786E-001  
  641.00  1.0849E-001  
  641.50  1.0829E-001  
  642.00  1.0784E-001  
  642.50  1.0811E-001  
  643.00  1.0874E-001  
  643.50  1.0961E-001  
  644.00  1.0986E-001  
  644.50  1.0979E-001  
  645.00  1.0982E-001  
  645.50  1.1041E-001  
  646.00  1.1128E-001  
  646.50  1.1194E-001  
  647.00  1.1199E-001  
  647.50  1.1212E-001  
  648.00  1.1231E-001  
  648.50  1.1251E-001  
  649.00  1.1267E-001  
  649.50  1.1308E-001  
  650.00  1.1356E-001  
  650.50  1.1404E-001  
  651.00  1.1433E-001  
  651.50  1.1493E-001  
  652.00  1.1562E-001  
  652.50  1.1572E-001  
  653.00  1.1596E-001  
  653.50  1.1604E-001  
  654.00  1.1652E-001  
  654.50  1.1658E-001  
  655.00  1.1686E-001  
  655.50  1.1710E-001  
  656.00  1.1732E-001  
  656.50  1.1773E-001  
  657.00  1.1785E-001  
  657.50  1.1815E-001  
  658.00  1.1832E-001  
  658.50  1.1855E-001  
  659.00  1.1899E-001  
  659.50  1.1938E-001  
  660.00  1.2033E-001  
  660.50  1.2104E-001  
  661.00  1.2120E-001  
  661.50  1.2093E-001  
  662.00  1.2078E-001  
  662.50  1.2136E-001  
  663.00  1.2219E-001  
  663.50  1.2273E-001  
  664.00  1.2267E-001  
  664.50  1.2252E-001  
  665.00  1.2242E-001  
  665.50  1.2260E-001  
  666.00  1.2287E-001  
  666.50  1.2336E-001  
  667.00  1.2389E-001  
  667.50  1.2433E-001  
  668.00  1.2455E-001  
  668.50  1.2457E-001  
  669.00  1.2497E-001  
  669.50  1.2529E-001  
  670.00  1.2569E-001  
  670.50  1.2554E-001  
  671.00  1.2562E-001  
  671.50  1.2575E-001  
  672.00  1.2607E-001  
  672.50  1.2626E-001  
  673.00  1.2625E-001  
  673.50  1.2561E-001  
  674.00  1.2549E-001  
  674.50  1.2566E-001  
  675.00  1.2624E-001  
  675.50  1.2670E-001  
  676.00  1.2736E-001  
  676.50  1.2795E-001  
  677.00  1.2809E-001  
  677.50  1.2794E-001  
  678.00  1.2827E-001  
  678.50  1.2866E-001  
  679.00  1.2884E-001  
  679.50  1.2875E-001  
  680.00  1.2882E-001  
  680.50  1.2912E-001  
  681.00  1.2946E-001  
  681.50  1.2995E-001  
  682.00  1.3071E-001  
  682.50  1.3100E-001  
  683.00  1.3072E-001  
  683.50  1.2997E-001  
  684.00  1.3036E-001  
  684.50  1.3097E-001  
  685.00  1.3127E-001  
  685.50  1.3115E-001  
  686.00  1.3126E-001  
  686.50  1.3207E-001  
  687.00  1.3255E-001  
  687.50  1.3323E-001  
  688.00  1.3340E-001  
  688.50  1.3369E-001  
  689.00  1.3336E-001  
  689.50  1.3303E-001  
  690.00  1.3302E-001  
  690.50  1.3385E-001  
  691.00  1.3404E-001  
  691.50  1.3389E-001  
  692.00  1.3363E-001  
  692.50  1.3406E-001  
  693.00  1.3418E-001  
  693.50  1.3427E-001  
  694.00  1.3457E-001  
  694.50  1.3504E-001  
  695.00  1.3566E-001  
  695.50  1.3619E-001  
  696.00  1.3687E-001  
  696.50  1.3747E-001  
  697.00  1.3787E-001  
  697.50  1.3781E-001  
  698.00  1.3749E-001  
  698.50  1.3762E-001  
  699.00  1.3777E-001  
  699.50  1.3782E-001  
  700.00  1.3774E-001  
  700.50  1.3798E-001  
  701.00  1.3867E-001  
  701.50  1.3922E-001  
  702.00  1.3943E-001  
  702.50  1.3977E-001  
  703.00  1.3953E-001  
  703.50  1.3913E-001  
  704.00  1.3944E-001  
  704.50  1.4007E-001  
  705.00  1.4039E-001  
  705.50  1.4014E-001  
  706.00  1.4074E-001  
  706.50  1.4087E-001  
  707.00  1.4106E-001  
  707.50  1.4132E-001  
  708.00  1.4186E-001  
  708.50  1.4210E-001  
  709.00  1.4208E-001  
  709.50  1.4261E-001  
  710.00  1.4294E-001  
  710.50  1.4299E-001  
  711.00  1.4311E-001  
  711.50  1.4320E-001  
  712.00  1.4365E-001  
  712.50  1.4369E-001  
  713.00  1.4416E-001  
  713.50  1.4484E-001  
  714.00  1.4541E-001  
  714.50  1.4551E-001  
  715.00  1.4544E-001  
  715.50  1.4529E-001  
  716.00  1.4530E-001  
  716.50  1.4515E-001  
  717.00  1.4501E-001  
  717.50  1.4512E-001  
  718.00  1.4566E-001  
  718.50  1.4623E-001  
  719.00  1.4634E-001  
  719.50  1.4669E-001  
  720.00  1.4784E-001  
  720.50  1.4860E-001  
  721.00  1.4851E-001  
  721.50  1.4732E-001  
  722.00  1.4706E-001  
  722.50  1.4734E-001  
  723.00  1.4833E-001  
  723.50  1.4843E-001  
  724.00  1.4850E-001  
  724.50  1.4790E-001  
  725.00  1.4808E-001  
  725.50  1.4843E-001  
  726.00  1.4920E-001  
  726.50  1.4986E-001  
  727.00  1.5018E-001  
  727.50  1.5043E-001  
  728.00  1.5038E-001  
  728.50  1.5110E-001  
  729.00  1.5173E-001  
  729.50  1.5187E-001  
  730.00  1.5139E-001  
  730.50  1.5141E-001  
  731.00  1.5180E-001  
  731.50  1.5281E-001  
  732.00  1.5313E-001  
  732.50  1.5366E-001  
  733.00  1.5342E-001  
  733.50  1.5332E-001  
  734.00  1.5342E-001  
  734.50  1.5402E-001  
  735.00  1.5476E-001  
  735.50  1.5496E-001  
  736.00  1.5449E-001  
  736.50  1.5384E-001  
  737.00  1.5358E-001  
  737.50  1.5453E-001  
  738.00  1.5522E-001  
  738.50  1.5610E-001  
  739.00  1.5672E-001  
  739.50  1.5762E-001  
  740.00  1.5783E-001  
  740.50  1.5699E-001  
  741.00  1.5601E-001  
  741.50  1.5613E-001  
  742.00  1.5702E-001  
  742.50  1.5756E-001  
  743.00  1.5745E-001  
  743.50  1.5793E-001  
  744.00  1.5853E-001  
  744.50  1.5898E-001  
  745.00  1.5892E-001  
  745.50  1.5853E-001  
  746.00  1.5834E-001  
  746.50  1.5776E-001  
  747.00  1.5740E-001  
  747.50  1.5812E-001  
  748.00  1.5843E-001  
  748.50  1.5869E-001  
  749.00  1.5854E-001  
  749.50  1.5994E-001  
  750.00  1.6090E-001  
  750.50  1.6215E-001  
  751.00  1.6269E-001  
  751.50  1.6248E-001  
  752.00  1.6186E-001  
  752.50  1.6199E-001  
  753.00  1.6266E-001  
  753.50  1.6237E-001  
  754.00  1.6216E-001  
  754.50  1.6205E-001  
  755.00  1.6279E-001  
  755.50  1.6330E-001  
  756.00  1.6413E-001  
  756.50  1.6449E-001  
  757.00  1.6467E-001  
  757.50  1.6444E-001  
  758.00  1.6489E-001  
  758.50  1.6500E-001  
  759.00  1.6515E-001  
  759.50  1.6523E-001  
  760.00  1.6497E-001  
  760.50  1.6466E-001  
  761.00  1.6504E-001  
  761.50  1.6615E-001  
  762.00  1.6683E-001  
  762.50  1.6726E-001  
  763.00  1.6631E-001  
  763.50  1.6521E-001  
  764.00  1.6453E-001  
  764.50  1.6474E-001  
  765.00  1.6546E-001  
  765.50  1.6655E-001  
  766.00  1.6794E-001  
  766.50  1.6901E-001  
  767.00  1.6900E-001  
  767.50  1.6879E-001  
  768.00  1.6864E-001  
  768.50  1.6937E-001  
  769.00  1.7001E-001  
  769.50  1.7128E-001  
  770.00  1.7056E-001  
  770.50  1.7015E-001  
  771.00  1.6938E-001  
  771.50  1.7008E-001  
  772.00  1.7103E-001  
  772.50  1.7232E-001  
  773.00  1.7285E-001  
  773.50  1.7282E-001  
  774.00  1.7311E-001  
  774.50  1.7262E-001  
  775.00  1.7106E-001  
  775.50  1.7036E-001  
  776.00  1.7156E-001  
  776.50  1.7264E-001  
  777.00  1.7184E-001  
  777.50  1.7133E-001  
  778.00  1.7183E-001  
  778.50  1.7232E-001  
  779.00  1.7341E-001  
  779.50  1.7411E-001  
  780.00  1.7528E-001  
  780.50  1.7561E-001  
  781.00  1.7580E-001  
  781.50  1.7459E-001  
  782.00  1.7493E-001  
  782.50  1.7463E-001  
  783.00  1.7569E-001  
  783.50  1.7778E-001  
  784.00  1.7938E-001  
  784.50  1.7849E-001  
  785.00  1.7607E-001  
  785.50  1.7525E-001  
  786.00  1.7519E-001  
  786.50  1.7682E-001  
  787.00  1.7864E-001  
  787.50  1.7996E-001  
  788.00  1.7877E-001  
  788.50  1.7813E-001  
  789.00  1.7852E-001  
  789.50  1.7957E-001  
  790.00  1.7938E-001  
  790.50  1.7878E-001  
  791.00  1.7856E-001  
  791.50  1.7951E-001  
  792.00  1.8040E-001  
  792.50  1.8001E-001  
  793.00  1.8056E-001  
  793.50  1.8116E-001  
  794.00  1.8198E-001  
  794.50  1.8254E-001  
  795.00  1.8300E-001  
  795.50  1.8236E-001  
  796.00  1.8175E-001  
  796.50  1.8296E-001  
  797.00  1.8492E-001  
  797.50  1.8605E-001  
  798.00  1.8492E-001  
  798.50  1.8448E-001  
  799.00  1.8409E-001  
  799.50  1.8438E-001  
  800.00  1.8551E-001  
  800.50  1.8661E-001  
  801.00  1.8650E-001  
  801.50  1.8557E-001  
  802.00  1.8506E-001  
  802.50  1.8592E-001  
  803.00  1.8664E-001  
  803.50  1.8642E-001  
  804.00  1.8490E-001  
  804.50  1.8434E-001  
  805.00  1.8314E-001  
  805.50  1.8373E-001  
  806.00  1.8611E-001  
  806.50  1.8861E-001  
  807.00  1.8916E-001  
  807.50  1.8839E-001  
  808.00  1.8716E-001  
  808.50  1.8688E-001  
  809.00  1.8681E-001  
  809.50  1.8660E-001  
  810.00  1.8692E-001  
  810.50  1.8815E-001  
  811.00  1.8845E-001  
  811.50  1.8776E-001  
  812.00  1.8785E-001  
  812.50  1.8935E-001  
  813.00  1.9044E-001  
  813.50  1.9047E-001  
  814.00  1.9012E-001  
  814.50  1.9100E-001  
  815.00  1.9257E-001  
  815.50  1.9381E-001  
  816.00  1.9251E-001  
  816.50  1.9140E-001  
  817.00  1.9367E-001  
  817.50  1.9545E-001  
  818.00  1.9496E-001  
  818.50  1.9429E-001  
  819.00  1.9451E-001  
  819.50  1.9474E-001  
  820.00  1.9469E-001  
  820.50  1.9397E-001  
  821.00  1.9309E-001  
  821.50  1.9285E-001  
  822.00  1.9375E-001  
  822.50  1.9358E-001  
  823.00  1.9364E-001  
  823.50  1.9507E-001  
  824.00  1.9684E-001  
  824.50  1.9754E-001  
  825.00  1.9764E-001  
  825.50  1.9923E-001  
  826.00  2.0072E-001  
  826.50  2.0058E-001  
  827.00  1.9836E-001  
  827.50  1.9713E-001  
  828.00  1.9752E-001  
  828.50  1.9852E-001  
  829.00  1.9975E-001  
  829.50  1.9916E-001  
  830.00  1.9828E-001  
  830.50  1.9762E-001  
  831.00  1.9836E-001  
  831.50  2.0100E-001  
  832.00  2.0177E-001  
  832.50  2.0057E-001  
  833.00  1.9902E-001  
  833.50  1.9899E-001  
  834.00  2.0050E-001  
  834.50  2.0234E-001  
  835.00  2.0386E-001  
  835.50  2.0300E-001  
  836.00  2.0160E-001  
  836.50  2.0185E-001  
  837.00  2.0414E-001  
  837.50  2.0511E-001  
  838.00  2.0552E-001  
  838.50  2.0712E-001  
  839.00  2.0546E-001  
  839.50  2.0484E-001  
  840.00  2.0359E-001  
  840.50  2.0483E-001  
  841.00  2.0656E-001  
  841.50  2.0844E-001  
  842.00  2.0725E-001  
  842.50  2.0491E-001  
  843.00  2.0622E-001  
  843.50  2.0696E-001  
  844.00  2.0816E-001  
  844.50  2.0909E-001  
  845.00  2.1159E-001  
  845.50  2.1014E-001  
  846.00  2.0800E-001  
  846.50  2.0765E-001  
  847.00  2.0585E-001  
  847.50  2.0580E-001  
  848.00  2.0776E-001  
  848.50  2.0900E-001  
  849.00  2.0997E-001  
  849.50  2.1061E-001  
  850.00  2.1029E-001  
  850.50  2.0837E-001  
  851.00  2.0824E-001  
  851.50  2.0993E-001  
  852.00  2.1024E-001  
  852.50  2.1027E-001  
  853.00  2.1032E-001  
  853.50  2.0974E-001  
  854.00  2.0909E-001  
  854.50  2.1232E-001  
  855.00  2.1507E-001  
  855.50  2.1376E-001  
  856.00  2.1254E-001  
  856.50  2.1414E-001  
  857.00  2.1329E-001  
  857.50  2.1179E-001  
  858.00  2.1032E-001  
  858.50  2.0974E-001  
  859.00  2.0987E-001  
  859.50  2.0995E-001  
  860.00  2.1019E-001  
  860.50  2.1167E-001  
  861.00  2.1508E-001  
  861.50  2.1508E-001  
  862.00  2.1682E-001  
  862.50  2.1705E-001  
  863.00  2.1667E-001  
  863.50  2.1578E-001  
  864.00  2.1633E-001  
  864.50  2.1664E-001  
  865.00  2.1495E-001  
  865.50  2.1468E-001  
  866.00  2.1601E-001  
  866.50  2.1648E-001  
  867.00  2.1676E-001  
  867.50  2.1763E-001  
  868.00  2.1554E-001  
  868.50  2.1361E-001  
  869.00  2.1387E-001  
  869.50  2.1748E-001  
  870.00  2.2061E-001  
  870.50  2.1900E-001  
  871.00  2.1578E-001  
  871.50  2.1394E-001  
  872.00  2.1841E-001  
  872.50  2.2026E-001  
  873.00  2.1662E-001  
  873.50  2.1599E-001  
  874.00  2.1643E-001  
  874.50  2.1567E-001  
  875.00  2.1520E-001  
  875.50  2.1729E-001  
  876.00  2.1615E-001  
  876.50  2.1736E-001  
  877.00  2.1819E-001  
  877.50  2.1819E-001  
  878.00  2.1632E-001  
  878.50  2.1457E-001  
  879.00  2.1949E-001  
  879.50  2.2397E-001  
  880.00  2.1994E-001  
  880.50  2.1825E-001  
  881.00  2.2161E-001  
  881.50  2.2504E-001  
  882.00  2.2370E-001  
  882.50  2.2395E-001  
  883.00  2.2400E-001  
  883.50  2.2471E-001  
  884.00  2.2616E-001  
  884.50  2.2832E-001  
  885.00  2.2897E-001  
  885.50  2.2766E-001  
  886.00  2.2594E-001  
  886.50  2.2391E-001  
  887.00  2.2536E-001  
  887.50  2.2502E-001  
  888.00  2.2240E-001  
  888.50  2.2057E-001  
  889.00  2.2204E-001  
  889.50  2.2073E-001  
  890.00  2.1976E-001  
  890.50  2.2215E-001  
  891.00  2.2671E-001  
  891.50  2.2741E-001  
  892.00  2.2846E-001  
  892.50  2.2807E-001  
  893.00  2.2863E-001  
  893.50  2.2620E-001  
  894.00  2.2083E-001  
  894.50  2.2227E-001  
  895.00  2.2704E-001  
  895.50  2.2752E-001  
  896.00  2.2260E-001  
  896.50  2.1959E-001  
  897.00  2.2425E-001  
  897.50  2.3223E-001  
  898.00  2.3306E-001  
  898.50  2.2980E-001  
  899.00  2.2869E-001  
  899.50  4.5566E-003  
