
# From lspdd.org
# 
# Name: Halo Noma PAR20 Domestique
# Indice spectral Valeur 
# MSI 0.32 
# SLI 0.52 
# IPI 0.96 
# Pourcentage de bleu 13.6 
# Caractéristique Valeur 
# CCT calculée (K) 2633 
# CCT du fabricant (K) 3000 
# Tension (V) 120 
# Puissance (W) 50.0 
# Efficacité lumineuse (Lum/W) ND 
#
# Image: '/app/system/img_2s/2747/medium_image2.jpg?1612236518'
# Image: '/app/system/img_1s/2747/medium_image1.jpg?1612236516'
# 

  273.00  0.0000E+000  
  273.50  0.0000E+000  
  274.00  0.0000E+000  
  274.50  0.0000E+000  
  275.00  0.0000E+000  
  275.50  0.0000E+000  
  276.00  0.0000E+000  
  276.50  0.0000E+000  
  277.00  0.0000E+000  
  277.50  0.0000E+000  
  278.00  0.0000E+000  
  278.50  0.0000E+000  
  279.00  0.0000E+000  
  279.50  0.0000E+000  
  280.00  0.0000E+000  
  280.50  0.0000E+000  
  281.00  0.0000E+000  
  281.50  0.0000E+000  
  282.00  0.0000E+000  
  282.50  0.0000E+000  
  283.00  0.0000E+000  
  283.50  0.0000E+000  
  284.00  0.0000E+000  
  284.50  0.0000E+000  
  285.00  0.0000E+000  
  285.50  0.0000E+000  
  286.00  0.0000E+000  
  286.50  0.0000E+000  
  287.00  0.0000E+000  
  287.50  0.0000E+000  
  288.00  0.0000E+000  
  288.50  0.0000E+000  
  289.00  0.0000E+000  
  289.50  0.0000E+000  
  290.00  0.0000E+000  
  290.50  0.0000E+000  
  291.00  0.0000E+000  
  291.50  0.0000E+000  
  292.00  0.0000E+000  
  292.50  0.0000E+000  
  293.00  0.0000E+000  
  293.50  0.0000E+000  
  294.00  0.0000E+000  
  294.50  0.0000E+000  
  295.00  0.0000E+000  
  295.50  0.0000E+000  
  296.00  0.0000E+000  
  296.50  0.0000E+000  
  297.00  0.0000E+000  
  297.50  0.0000E+000  
  298.00  0.0000E+000  
  298.50  0.0000E+000  
  299.00  0.0000E+000  
  299.50  0.0000E+000  
  300.00  8.2616E-005  
  300.50  2.3330E-004  
  301.00  2.9357E-004  
  301.50  4.2233E-004  
  302.00  5.2193E-004  
  302.50  6.3338E-004  
  303.00  5.4713E-004  
  303.50  5.0364E-004  
  304.00  5.2044E-004  
  304.50  4.7903E-004  
  305.00  6.4137E-004  
  305.50  8.4744E-004  
  306.00  8.2170E-004  
  306.50  6.7928E-004  
  307.00  5.3648E-004  
  307.50  2.7600E-004  
  308.00  3.4163E-004  
  308.50  4.3320E-004  
  309.00  6.0800E-004  
  309.50  1.0283E-003  
  310.00  1.1610E-003  
  310.50  1.2212E-003  
  311.00  9.7482E-004  
  311.50  7.6626E-004  
  312.00  7.7374E-004  
  312.50  8.1575E-004  
  313.00  6.4107E-004  
  313.50  2.9624E-004  
  314.00  9.6861E-005  
  314.50  0.0000E+000  
  315.00  3.5143E-006  
  315.50  2.1774E-005  
  316.00  1.3321E-004  
  316.50  4.1547E-004  
  317.00  6.4213E-004  
  317.50  9.0624E-004  
  318.00  8.7775E-004  
  318.50  8.4040E-004  
  319.00  1.0528E-003  
  319.50  1.0050E-003  
  320.00  1.1016E-003  
  320.50  1.2240E-003  
  321.00  9.1170E-004  
  321.50  7.1002E-004  
  322.00  4.7050E-004  
  322.50  1.6097E-004  
  323.00  3.3264E-004  
  323.50  6.2821E-004  
  324.00  6.5312E-004  
  324.50  7.9132E-004  
  325.00  9.0256E-004  
  325.50  8.0310E-004  
  326.00  9.6541E-004  
  326.50  1.0965E-003  
  327.00  8.7060E-004  
  327.50  8.5724E-004  
  328.00  1.0935E-003  
  328.50  1.2603E-003  
  329.00  1.6109E-003  
  329.50  1.7766E-003  
  330.00  1.4018E-003  
  330.50  9.0200E-004  
  331.00  5.2540E-004  
  331.50  6.3461E-004  
  332.00  1.1745E-003  
  332.50  1.5803E-003  
  333.00  1.9907E-003  
  333.50  2.1076E-003  
  334.00  1.9359E-003  
  334.50  2.0016E-003  
  335.00  1.8157E-003  
  335.50  1.7206E-003  
  336.00  1.5582E-003  
  336.50  1.5271E-003  
  337.00  1.4309E-003  
  337.50  1.2756E-003  
  338.00  1.3159E-003  
  338.50  1.1086E-003  
  339.00  1.2381E-003  
  339.50  1.4988E-003  
  340.00  1.9142E-003  
  340.50  2.1393E-003  
  341.00  2.0869E-003  
  341.50  1.9892E-003  
  342.00  1.9697E-003  
  342.50  2.2063E-003  
  343.00  2.3516E-003  
  343.50  2.6879E-003  
  344.00  2.7471E-003  
  344.50  2.8403E-003  
  345.00  3.0580E-003  
  345.50  3.1512E-003  
  346.00  3.4868E-003  
  346.50  3.5005E-003  
  347.00  3.0476E-003  
  347.50  2.9205E-003  
  348.00  2.7945E-003  
  348.50  2.7165E-003  
  349.00  2.9612E-003  
  349.50  2.8984E-003  
  350.00  3.1913E-003  
  350.50  3.7483E-003  
  351.00  3.9111E-003  
  351.50  4.0641E-003  
  352.00  3.8052E-003  
  352.50  3.6179E-003  
  353.00  3.7603E-003  
  353.50  4.0895E-003  
  354.00  4.3035E-003  
  354.50  4.5027E-003  
  355.00  4.5613E-003  
  355.50  4.4217E-003  
  356.00  4.3916E-003  
  356.50  4.4664E-003  
  357.00  4.2322E-003  
  357.50  3.9559E-003  
  358.00  3.6300E-003  
  358.50  3.6524E-003  
  359.00  3.9677E-003  
  359.50  4.4140E-003  
  360.00  4.8732E-003  
  360.50  4.9340E-003  
  361.00  4.6729E-003  
  361.50  4.4260E-003  
  362.00  4.0834E-003  
  362.50  4.0446E-003  
  363.00  4.2220E-003  
  363.50  4.6055E-003  
  364.00  5.0241E-003  
  364.50  5.3930E-003  
  365.00  5.6910E-003  
  365.50  5.4403E-003  
  366.00  5.1645E-003  
  366.50  4.6292E-003  
  367.00  4.3311E-003  
  367.50  4.6255E-003  
  368.00  4.9710E-003  
  368.50  5.6568E-003  
  369.00  6.1024E-003  
  369.50  6.3142E-003  
  370.00  6.3877E-003  
  370.50  6.3747E-003  
  371.00  6.4742E-003  
  371.50  6.6877E-003  
  372.00  7.0302E-003  
  372.50  7.2737E-003  
  373.00  7.3954E-003  
  373.50  7.4612E-003  
  374.00  7.4204E-003  
  374.50  7.0971E-003  
  375.00  7.2682E-003  
  375.50  7.5266E-003  
  376.00  7.6461E-003  
  376.50  7.7975E-003  
  377.00  7.4701E-003  
  377.50  7.4383E-003  
  378.00  7.6278E-003  
  378.50  7.7050E-003  
  379.00  7.9163E-003  
  379.50  7.8891E-003  
  380.00  7.9311E-003  
  380.50  7.9716E-003  
  381.00  7.9393E-003  
  381.50  8.1765E-003  
  382.00  8.2568E-003  
  382.50  8.2309E-003  
  383.00  8.4027E-003  
  383.50  8.5159E-003  
  384.00  8.6309E-003  
  384.50  9.0524E-003  
  385.00  9.4271E-003  
  385.50  9.4876E-003  
  386.00  9.4970E-003  
  386.50  8.9616E-003  
  387.00  8.7080E-003  
  387.50  8.9519E-003  
  388.00  9.4661E-003  
  388.50  1.0309E-002  
  389.00  1.0853E-002  
  389.50  1.1023E-002  
  390.00  1.1219E-002  
  390.50  1.1243E-002  
  391.00  1.1098E-002  
  391.50  1.1036E-002  
  392.00  1.0835E-002  
  392.50  1.0917E-002  
  393.00  1.1166E-002  
  393.50  1.1315E-002  
  394.00  1.1490E-002  
  394.50  1.1687E-002  
  395.00  1.2010E-002  
  395.50  1.2502E-002  
  396.00  1.2611E-002  
  396.50  1.2680E-002  
  397.00  1.2567E-002  
  397.50  1.2695E-002  
  398.00  1.3274E-002  
  398.50  1.3671E-002  
  399.00  1.3949E-002  
  399.50  1.4061E-002  
  400.00  1.3881E-002  
  400.50  1.3656E-002  
  401.00  1.3578E-002  
  401.50  1.3618E-002  
  402.00  1.4083E-002  
  402.50  1.4618E-002  
  403.00  1.4861E-002  
  403.50  1.5098E-002  
  404.00  1.5186E-002  
  404.50  1.5379E-002  
  405.00  1.5632E-002  
  405.50  1.5797E-002  
  406.00  1.6138E-002  
  406.50  1.6287E-002  
  407.00  1.6465E-002  
  407.50  1.6582E-002  
  408.00  1.6767E-002  
  408.50  1.7015E-002  
  409.00  1.7285E-002  
  409.50  1.7552E-002  
  410.00  1.7606E-002  
  410.50  1.7691E-002  
  411.00  1.7539E-002  
  411.50  1.7583E-002  
  412.00  1.7670E-002  
  412.50  1.7981E-002  
  413.00  1.8240E-002  
  413.50  1.8625E-002  
  414.00  1.8881E-002  
  414.50  1.8980E-002  
  415.00  1.9122E-002  
  415.50  1.9141E-002  
  416.00  1.9560E-002  
  416.50  2.0075E-002  
  417.00  2.0620E-002  
  417.50  2.0866E-002  
  418.00  2.0729E-002  
  418.50  2.0699E-002  
  419.00  2.0931E-002  
  419.50  2.1375E-002  
  420.00  2.1728E-002  
  420.50  2.1961E-002  
  421.00  2.1931E-002  
  421.50  2.1994E-002  
  422.00  2.2184E-002  
  422.50  2.2042E-002  
  423.00  2.2073E-002  
  423.50  2.2296E-002  
  424.00  2.2598E-002  
  424.50  2.3297E-002  
  425.00  2.3550E-002  
  425.50  2.3575E-002  
  426.00  2.3590E-002  
  426.50  2.3383E-002  
  427.00  2.3640E-002  
  427.50  2.3855E-002  
  428.00  2.4336E-002  
  428.50  2.4643E-002  
  429.00  2.5059E-002  
  429.50  2.5386E-002  
  430.00  2.5486E-002  
  430.50  2.5802E-002  
  431.00  2.5935E-002  
  431.50  2.6190E-002  
  432.00  2.6538E-002  
  432.50  2.6923E-002  
  433.00  2.7190E-002  
  433.50  2.7483E-002  
  434.00  2.7822E-002  
  434.50  2.8043E-002  
  435.00  2.8180E-002  
  435.50  2.8299E-002  
  436.00  2.8507E-002  
  436.50  2.8540E-002  
  437.00  2.8598E-002  
  437.50  2.8457E-002  
  438.00  2.8455E-002  
  438.50  2.9053E-002  
  439.00  2.9574E-002  
  439.50  3.0253E-002  
  440.00  3.0755E-002  
  440.50  3.1062E-002  
  441.00  3.1254E-002  
  441.50  3.1299E-002  
  442.00  3.1534E-002  
  442.50  3.1561E-002  
  443.00  3.1878E-002  
  443.50  3.2064E-002  
  444.00  3.2342E-002  
  444.50  3.2711E-002  
  445.00  3.2903E-002  
  445.50  3.3203E-002  
  446.00  3.3709E-002  
  446.50  3.4307E-002  
  447.00  3.4875E-002  
  447.50  3.5072E-002  
  448.00  3.5014E-002  
  448.50  3.4787E-002  
  449.00  3.4731E-002  
  449.50  3.5214E-002  
  450.00  3.5508E-002  
  450.50  3.5987E-002  
  451.00  3.6421E-002  
  451.50  3.6690E-002  
  452.00  3.7343E-002  
  452.50  3.7668E-002  
  453.00  3.7800E-002  
  453.50  3.7846E-002  
  454.00  3.7934E-002  
  454.50  3.8227E-002  
  455.00  3.8675E-002  
  455.50  3.9193E-002  
  456.00  3.9582E-002  
  456.50  4.0190E-002  
  457.00  4.0927E-002  
  457.50  4.1067E-002  
  458.00  4.0835E-002  
  458.50  4.0511E-002  
  459.00  4.0658E-002  
  459.50  4.1100E-002  
  460.00  4.1690E-002  
  460.50  4.2013E-002  
  461.00  4.2586E-002  
  461.50  4.3429E-002  
  462.00  4.3865E-002  
  462.50  4.4348E-002  
  463.00  4.4764E-002  
  463.50  4.5172E-002  
  464.00  4.5563E-002  
  464.50  4.5756E-002  
  465.00  4.5915E-002  
  465.50  4.6187E-002  
  466.00  4.6268E-002  
  466.50  4.6531E-002  
  467.00  4.7111E-002  
  467.50  4.7881E-002  
  468.00  4.8657E-002  
  468.50  4.9155E-002  
  469.00  4.9367E-002  
  469.50  4.9815E-002  
  470.00  5.0060E-002  
  470.50  5.0416E-002  
  471.00  5.0651E-002  
  471.50  5.0957E-002  
  472.00  5.1604E-002  
  472.50  5.2313E-002  
  473.00  5.2877E-002  
  473.50  5.3064E-002  
  474.00  5.3373E-002  
  474.50  5.3671E-002  
  475.00  5.4055E-002  
  475.50  5.4161E-002  
  476.00  5.4204E-002  
  476.50  5.4270E-002  
  477.00  5.4721E-002  
  477.50  5.5144E-002  
  478.00  5.5540E-002  
  478.50  5.5874E-002  
  479.00  5.6321E-002  
  479.50  5.6920E-002  
  480.00  5.7807E-002  
  480.50  5.8289E-002  
  481.00  5.8216E-002  
  481.50  5.8095E-002  
  482.00  5.7883E-002  
  482.50  5.8047E-002  
  483.00  5.8410E-002  
  483.50  5.8735E-002  
  484.00  5.9183E-002  
  484.50  5.9180E-002  
  485.00  5.9162E-002  
  485.50  5.9165E-002  
  486.00  5.9626E-002  
  486.50  6.0204E-002  
  487.00  6.0610E-002  
  487.50  6.0625E-002  
  488.00  6.0579E-002  
  488.50  6.0679E-002  
  489.00  6.0846E-002  
  489.50  6.1251E-002  
  490.00  6.1547E-002  
  490.50  6.1897E-002  
  491.00  6.2113E-002  
  491.50  6.2250E-002  
  492.00  6.2558E-002  
  492.50  6.2591E-002  
  493.00  6.2414E-002  
  493.50  6.2287E-002  
  494.00  6.2285E-002  
  494.50  6.2773E-002  
  495.00  6.3385E-002  
  495.50  6.3835E-002  
  496.00  6.4174E-002  
  496.50  6.4179E-002  
  497.00  6.4276E-002  
  497.50  6.4418E-002  
  498.00  6.4724E-002  
  498.50  6.5215E-002  
  499.00  6.5758E-002  
  499.50  6.6287E-002  
  500.00  6.6655E-002  
  500.50  6.6740E-002  
  501.00  6.7007E-002  
  501.50  6.7509E-002  
  502.00  6.8014E-002  
  502.50  6.8409E-002  
  503.00  6.8750E-002  
  503.50  6.9015E-002  
  504.00  6.9328E-002  
  504.50  6.9581E-002  
  505.00  6.9752E-002  
  505.50  7.0158E-002  
  506.00  7.0581E-002  
  506.50  7.0881E-002  
  507.00  7.1113E-002  
  507.50  7.1408E-002  
  508.00  7.1869E-002  
  508.50  7.2345E-002  
  509.00  7.2781E-002  
  509.50  7.3131E-002  
  510.00  7.3507E-002  
  510.50  7.4184E-002  
  511.00  7.4594E-002  
  511.50  7.5104E-002  
  512.00  7.5607E-002  
  512.50  7.6042E-002  
  513.00  7.6474E-002  
  513.50  7.6448E-002  
  514.00  7.6620E-002  
  514.50  7.6996E-002  
  515.00  7.7742E-002  
  515.50  7.8476E-002  
  516.00  7.8921E-002  
  516.50  7.9225E-002  
  517.00  7.9488E-002  
  517.50  7.9680E-002  
  518.00  7.9961E-002  
  518.50  8.0313E-002  
  519.00  8.0978E-002  
  519.50  8.1835E-002  
  520.00  8.2447E-002  
  520.50  8.2920E-002  
  521.00  8.3202E-002  
  521.50  8.3505E-002  
  522.00  8.3851E-002  
  522.50  8.4209E-002  
  523.00  8.4739E-002  
  523.50  8.5524E-002  
  524.00  8.6278E-002  
  524.50  8.7116E-002  
  525.00  8.7730E-002  
  525.50  8.8184E-002  
  526.00  8.8437E-002  
  526.50  8.8793E-002  
  527.00  8.9377E-002  
  527.50  9.0275E-002  
  528.00  9.1129E-002  
  528.50  9.1774E-002  
  529.00  9.2019E-002  
  529.50  9.2232E-002  
  530.00  9.2623E-002  
  530.50  9.3259E-002  
  531.00  9.3974E-002  
  531.50  9.4778E-002  
  532.00  9.5390E-002  
  532.50  9.5916E-002  
  533.00  9.6168E-002  
  533.50  9.6590E-002  
  534.00  9.7220E-002  
  534.50  9.8050E-002  
  535.00  9.8670E-002  
  535.50  9.9013E-002  
  536.00  9.9429E-002  
  536.50  1.0026E-001  
  537.00  1.0107E-001  
  537.50  1.0189E-001  
  538.00  1.0229E-001  
  538.50  1.0298E-001  
  539.00  1.0386E-001  
  539.50  1.0471E-001  
  540.00  1.0515E-001  
  540.50  1.0544E-001  
  541.00  1.0580E-001  
  541.50  1.0652E-001  
  542.00  1.0725E-001  
  542.50  1.0811E-001  
  543.00  1.0886E-001  
  543.50  1.0958E-001  
  544.00  1.1022E-001  
  544.50  1.1070E-001  
  545.00  1.1122E-001  
  545.50  1.1182E-001  
  546.00  1.1239E-001  
  546.50  1.1306E-001  
  547.00  1.1375E-001  
  547.50  1.1435E-001  
  548.00  1.1503E-001  
  548.50  1.1577E-001  
  549.00  1.1653E-001  
  549.50  1.1736E-001  
  550.00  1.1796E-001  
  550.50  1.1867E-001  
  551.00  1.1919E-001  
  551.50  1.1989E-001  
  552.00  1.2065E-001  
  552.50  1.2149E-001  
  553.00  1.2216E-001  
  553.50  1.2278E-001  
  554.00  1.2342E-001  
  554.50  1.2429E-001  
  555.00  1.2495E-001  
  555.50  1.2512E-001  
  556.00  1.2530E-001  
  556.50  1.2571E-001  
  557.00  1.2665E-001  
  557.50  1.2791E-001  
  558.00  1.2891E-001  
  558.50  1.2967E-001  
  559.00  1.3017E-001  
  559.50  1.3071E-001  
  560.00  1.3169E-001  
  560.50  1.3259E-001  
  561.00  1.3357E-001  
  561.50  1.3420E-001  
  562.00  1.3471E-001  
  562.50  1.3562E-001  
  563.00  1.3635E-001  
  563.50  1.3729E-001  
  564.00  1.3764E-001  
  564.50  1.3808E-001  
  565.00  1.3866E-001  
  565.50  1.3942E-001  
  566.00  1.4019E-001  
  566.50  1.4056E-001  
  567.00  1.4056E-001  
  567.50  1.4059E-001  
  568.00  1.4099E-001  
  568.50  1.4196E-001  
  569.00  1.4315E-001  
  569.50  1.4381E-001  
  570.00  1.4436E-001  
  570.50  1.4485E-001  
  571.00  1.4564E-001  
  571.50  1.4639E-001  
  572.00  1.4731E-001  
  572.50  1.4832E-001  
  573.00  1.4895E-001  
  573.50  1.4930E-001  
  574.00  1.4930E-001  
  574.50  1.4968E-001  
  575.00  1.5036E-001  
  575.50  1.5158E-001  
  576.00  1.5257E-001  
  576.50  1.5356E-001  
  577.00  1.5418E-001  
  577.50  1.5456E-001  
  578.00  1.5480E-001  
  578.50  1.5489E-001  
  579.00  1.5538E-001  
  579.50  1.5615E-001  
  580.00  1.5728E-001  
  580.50  1.5765E-001  
  581.00  1.5860E-001  
  581.50  1.5923E-001  
  582.00  1.6036E-001  
  582.50  1.6037E-001  
  583.00  1.6011E-001  
  583.50  1.6012E-001  
  584.00  1.6097E-001  
  584.50  1.6213E-001  
  585.00  1.6306E-001  
  585.50  1.6338E-001  
  586.00  1.6363E-001  
  586.50  1.6392E-001  
  587.00  1.6449E-001  
  587.50  1.6525E-001  
  588.00  1.6593E-001  
  588.50  1.6654E-001  
  589.00  1.6685E-001  
  589.50  1.6725E-001  
  590.00  1.6751E-001  
  590.50  1.6837E-001  
  591.00  1.6969E-001  
  591.50  1.7115E-001  
  592.00  1.7220E-001  
  592.50  1.7231E-001  
  593.00  1.7230E-001  
  593.50  1.7258E-001  
  594.00  1.7332E-001  
  594.50  1.7415E-001  
  595.00  1.7499E-001  
  595.50  1.7602E-001  
  596.00  1.7695E-001  
  596.50  1.7731E-001  
  597.00  1.7716E-001  
  597.50  1.7689E-001  
  598.00  1.7699E-001  
  598.50  1.7744E-001  
  599.00  1.7805E-001  
  599.50  1.7912E-001  
  600.00  1.7984E-001  
  600.50  1.8060E-001  
  601.00  1.8107E-001  
  601.50  1.8138E-001  
  602.00  1.8125E-001  
  602.50  1.8127E-001  
  603.00  1.8136E-001  
  603.50  1.8197E-001  
  604.00  1.8261E-001  
  604.50  1.8331E-001  
  605.00  1.8413E-001  
  605.50  1.8455E-001  
  606.00  1.8483E-001  
  606.50  1.8540E-001  
  607.00  1.8615E-001  
  607.50  1.8720E-001  
  608.00  1.8788E-001  
  608.50  1.8848E-001  
  609.00  1.8905E-001  
  609.50  1.8939E-001  
  610.00  1.8959E-001  
  610.50  1.8978E-001  
  611.00  1.9026E-001  
  611.50  1.9076E-001  
  612.00  1.9100E-001  
  612.50  1.9111E-001  
  613.00  1.9145E-001  
  613.50  1.9222E-001  
  614.00  1.9336E-001  
  614.50  1.9426E-001  
  615.00  1.9470E-001  
  615.50  1.9466E-001  
  616.00  1.9458E-001  
  616.50  1.9507E-001  
  617.00  1.9513E-001  
  617.50  1.9503E-001  
  618.00  1.9511E-001  
  618.50  1.9577E-001  
  619.00  1.9684E-001  
  619.50  1.9794E-001  
  620.00  1.9816E-001  
  620.50  1.9821E-001  
  621.00  1.9811E-001  
  621.50  1.9827E-001  
  622.00  1.9898E-001  
  622.50  1.9909E-001  
  623.00  1.9953E-001  
  623.50  1.9978E-001  
  624.00  2.0006E-001  
  624.50  2.0043E-001  
  625.00  2.0082E-001  
  625.50  2.0134E-001  
  626.00  2.0172E-001  
  626.50  2.0222E-001  
  627.00  2.0275E-001  
  627.50  2.0341E-001  
  628.00  2.0394E-001  
  628.50  2.0418E-001  
  629.00  2.0420E-001  
  629.50  2.0437E-001  
  630.00  2.0526E-001  
  630.50  2.0578E-001  
  631.00  2.0576E-001  
  631.50  2.0567E-001  
  632.00  2.0610E-001  
  632.50  2.0651E-001  
  633.00  2.0694E-001  
  633.50  2.0683E-001  
  634.00  2.0754E-001  
  634.50  2.0802E-001  
  635.00  2.0878E-001  
  635.50  2.0928E-001  
  636.00  2.0951E-001  
  636.50  2.0987E-001  
  637.00  2.1045E-001  
  637.50  2.1131E-001  
  638.00  2.1183E-001  
  638.50  2.1220E-001  
  639.00  2.1235E-001  
  639.50  2.1261E-001  
  640.00  2.1254E-001  
  640.50  2.1241E-001  
  641.00  2.1272E-001  
  641.50  2.1349E-001  
  642.00  2.1436E-001  
  642.50  2.1497E-001  
  643.00  2.1509E-001  
  643.50  2.1551E-001  
  644.00  2.1615E-001  
  644.50  2.1683E-001  
  645.00  2.1763E-001  
  645.50  2.1767E-001  
  646.00  2.1788E-001  
  646.50  2.1786E-001  
  647.00  2.1824E-001  
  647.50  2.1847E-001  
  648.00  2.1850E-001  
  648.50  2.1906E-001  
  649.00  2.1950E-001  
  649.50  2.1993E-001  
  650.00  2.2017E-001  
  650.50  2.2056E-001  
  651.00  2.2137E-001  
  651.50  2.2205E-001  
  652.00  2.2317E-001  
  652.50  2.2336E-001  
  653.00  2.2323E-001  
  653.50  2.2282E-001  
  654.00  2.2351E-001  
  654.50  2.2427E-001  
  655.00  2.2448E-001  
  655.50  2.2384E-001  
  656.00  2.2353E-001  
  656.50  2.2411E-001  
  657.00  2.2516E-001  
  657.50  2.2628E-001  
  658.00  2.2596E-001  
  658.50  2.2548E-001  
  659.00  2.2503E-001  
  659.50  2.2527E-001  
  660.00  2.2572E-001  
  660.50  2.2633E-001  
  661.00  2.2749E-001  
  661.50  2.2829E-001  
  662.00  2.2887E-001  
  662.50  2.2916E-001  
  663.00  2.2910E-001  
  663.50  2.2901E-001  
  664.00  2.2927E-001  
  664.50  2.2902E-001  
  665.00  2.2901E-001  
  665.50  2.2851E-001  
  666.00  2.2919E-001  
  666.50  2.2955E-001  
  667.00  2.3017E-001  
  667.50  2.3027E-001  
  668.00  2.3041E-001  
  668.50  2.3073E-001  
  669.00  2.3120E-001  
  669.50  2.3130E-001  
  670.00  2.3100E-001  
  670.50  2.3065E-001  
  671.00  2.3036E-001  
  671.50  2.3037E-001  
  672.00  2.3069E-001  
  672.50  2.3122E-001  
  673.00  2.3192E-001  
  673.50  2.3238E-001  
  674.00  2.3234E-001  
  674.50  2.3234E-001  
  675.00  2.3270E-001  
  675.50  2.3323E-001  
  676.00  2.3269E-001  
  676.50  2.3226E-001  
  677.00  2.3192E-001  
  677.50  2.3205E-001  
  678.00  2.3197E-001  
  678.50  2.3242E-001  
  679.00  2.3311E-001  
  679.50  2.3376E-001  
  680.00  2.3396E-001  
  680.50  2.3425E-001  
  681.00  2.3432E-001  
  681.50  2.3430E-001  
  682.00  2.3400E-001  
  682.50  2.3377E-001  
  683.00  2.3389E-001  
  683.50  2.3431E-001  
  684.00  2.3462E-001  
  684.50  2.3417E-001  
  685.00  2.3332E-001  
  685.50  2.3391E-001  
  686.00  2.3490E-001  
  686.50  2.3556E-001  
  687.00  2.3522E-001  
  687.50  2.3547E-001  
  688.00  2.3567E-001  
  688.50  2.3617E-001  
  689.00  2.3607E-001  
  689.50  2.3638E-001  
  690.00  2.3639E-001  
  690.50  2.3695E-001  
  691.00  2.3659E-001  
  691.50  2.3620E-001  
  692.00  2.3593E-001  
  692.50  2.3636E-001  
  693.00  2.3664E-001  
  693.50  2.3650E-001  
  694.00  2.3676E-001  
  694.50  2.3711E-001  
  695.00  2.3768E-001  
  695.50  2.3769E-001  
  696.00  2.3702E-001  
  696.50  2.3679E-001  
  697.00  2.3742E-001  
  697.50  2.3833E-001  
  698.00  2.3872E-001  
  698.50  2.3822E-001  
  699.00  2.3780E-001  
  699.50  2.3723E-001  
  700.00  2.3715E-001  
  700.50  2.3734E-001  
  701.00  2.3866E-001  
  701.50  2.3954E-001  
  702.00  2.3974E-001  
  702.50  2.3966E-001  
  703.00  2.3949E-001  
  703.50  2.3902E-001  
  704.00  2.3858E-001  
  704.50  2.3885E-001  
  705.00  2.3941E-001  
  705.50  2.3912E-001  
  706.00  2.3913E-001  
  706.50  2.3942E-001  
  707.00  2.3989E-001  
  707.50  2.4039E-001  
  708.00  2.4122E-001  
  708.50  2.4157E-001  
  709.00  2.4125E-001  
  709.50  2.4153E-001  
  710.00  2.4258E-001  
  710.50  2.4350E-001  
  711.00  2.4360E-001  
  711.50  2.4277E-001  
  712.00  2.4253E-001  
  712.50  2.4289E-001  
  713.00  2.4343E-001  
  713.50  2.4276E-001  
  714.00  2.4221E-001  
  714.50  2.4227E-001  
  715.00  2.4342E-001  
  715.50  2.4358E-001  
  716.00  2.4338E-001  
  716.50  2.4259E-001  
  717.00  2.4289E-001  
  717.50  2.4378E-001  
  718.00  2.4511E-001  
  718.50  2.4540E-001  
  719.00  2.4534E-001  
  719.50  2.4462E-001  
  720.00  2.4460E-001  
  720.50  2.4487E-001  
  721.00  2.4469E-001  
  721.50  2.4456E-001  
  722.00  2.4442E-001  
  722.50  2.4485E-001  
  723.00  2.4454E-001  
  723.50  2.4438E-001  
  724.00  2.4421E-001  
  724.50  2.4403E-001  
  725.00  2.4372E-001  
  725.50  2.4485E-001  
  726.00  2.4536E-001  
  726.50  2.4630E-001  
  727.00  2.4706E-001  
  727.50  2.4850E-001  
  728.00  2.4854E-001  
  728.50  2.4773E-001  
  729.00  2.4693E-001  
  729.50  2.4644E-001  
  730.00  2.4629E-001  
  730.50  2.4676E-001  
  731.00  2.4696E-001  
  731.50  2.4682E-001  
  732.00  2.4669E-001  
  732.50  2.4756E-001  
  733.00  2.4826E-001  
  733.50  2.4797E-001  
  734.00  2.4801E-001  
  734.50  2.4829E-001  
  735.00  2.4881E-001  
  735.50  2.4818E-001  
  736.00  2.4700E-001  
  736.50  2.4690E-001  
  737.00  2.4777E-001  
  737.50  2.4898E-001  
  738.00  2.4948E-001  
  738.50  2.5029E-001  
  739.00  2.5072E-001  
  739.50  2.5067E-001  
  740.00  2.5024E-001  
  740.50  2.4935E-001  
  741.00  2.4878E-001  
  741.50  2.4916E-001  
  742.00  2.4954E-001  
  742.50  2.4903E-001  
  743.00  2.4870E-001  
  743.50  2.4906E-001  
  744.00  2.5052E-001  
  744.50  2.5192E-001  
  745.00  2.5288E-001  
  745.50  2.5238E-001  
  746.00  2.5164E-001  
  746.50  2.5098E-001  
  747.00  2.5087E-001  
  747.50  2.5049E-001  
  748.00  2.5040E-001  
  748.50  2.5049E-001  
  749.00  2.5139E-001  
  749.50  2.5236E-001  
  750.00  2.5299E-001  
  750.50  2.5344E-001  
  751.00  2.5431E-001  
  751.50  2.5294E-001  
  752.00  2.5165E-001  
  752.50  2.5197E-001  
  753.00  2.5413E-001  
  753.50  2.5398E-001  
  754.00  2.5337E-001  
  754.50  2.5324E-001  
  755.00  2.5410E-001  
  755.50  2.5439E-001  
  756.00  2.5373E-001  
  756.50  2.5349E-001  
  757.00  2.5345E-001  
  757.50  2.5390E-001  
  758.00  2.5332E-001  
  758.50  2.5336E-001  
  759.00  2.5430E-001  
  759.50  2.5555E-001  
  760.00  2.5521E-001  
  760.50  2.5535E-001  
  761.00  2.5526E-001  
  761.50  2.5513E-001  
  762.00  2.5522E-001  
  762.50  2.5602E-001  
  763.00  2.5659E-001  
  763.50  2.5574E-001  
  764.00  2.5510E-001  
  764.50  2.5507E-001  
  765.00  2.5492E-001  
  765.50  2.5437E-001  
  766.00  2.5433E-001  
  766.50  2.5448E-001  
  767.00  2.5617E-001  
  767.50  2.5742E-001  
  768.00  2.5902E-001  
  768.50  2.5833E-001  
  769.00  2.5787E-001  
  769.50  2.5774E-001  
  770.00  2.5657E-001  
  770.50  2.5572E-001  
  771.00  2.5657E-001  
  771.50  2.5857E-001  
  772.00  2.5898E-001  
  772.50  2.5866E-001  
  773.00  2.5712E-001  
  773.50  2.5624E-001  
  774.00  2.5672E-001  
  774.50  2.5817E-001  
  775.00  2.5749E-001  
  775.50  2.5644E-001  
  776.00  2.5607E-001  
  776.50  2.5706E-001  
  777.00  2.5728E-001  
  777.50  2.5756E-001  
  778.00  2.5624E-001  
  778.50  2.5622E-001  
  779.00  2.5722E-001  
  779.50  2.6032E-001  
  780.00  2.6239E-001  
  780.50  2.6216E-001  
  781.00  2.6060E-001  
  781.50  2.5926E-001  
  782.00  2.5882E-001  
  782.50  2.5998E-001  
  783.00  2.6065E-001  
  783.50  2.6013E-001  
  784.00  2.6021E-001  
  784.50  2.6125E-001  
  785.00  2.6145E-001  
  785.50  2.6102E-001  
  786.00  2.6047E-001  
  786.50  2.6022E-001  
  787.00  2.5917E-001  
  787.50  2.5975E-001  
  788.00  2.5950E-001  
  788.50  2.5944E-001  
  789.00  2.5884E-001  
  789.50  2.5974E-001  
  790.00  2.6103E-001  
  790.50  2.6272E-001  
  791.00  2.6163E-001  
  791.50  2.6102E-001  
  792.00  2.6014E-001  
  792.50  2.6124E-001  
  793.00  2.6239E-001  
  793.50  2.6324E-001  
  794.00  2.6214E-001  
  794.50  2.6047E-001  
  795.00  2.6123E-001  
  795.50  2.6260E-001  
  796.00  2.6387E-001  
  796.50  2.6338E-001  
  797.00  2.6219E-001  
  797.50  2.6290E-001  
  798.00  2.6392E-001  
  798.50  2.6369E-001  
  799.00  2.6221E-001  
  799.50  2.6152E-001  
  800.00  2.6244E-001  
  800.50  2.6328E-001  
  801.00  2.6325E-001  
  801.50  2.6491E-001  
  802.00  2.6584E-001  
  802.50  2.6499E-001  
  803.00  2.6325E-001  
  803.50  2.6187E-001  
  804.00  2.6185E-001  
  804.50  2.6278E-001  
  805.00  2.6598E-001  
  805.50  2.6721E-001  
  806.00  2.6714E-001  
  806.50  2.6510E-001  
  807.00  2.6399E-001  
  807.50  2.6435E-001  
  808.00  2.6549E-001  
  808.50  2.6721E-001  
  809.00  2.6759E-001  
  809.50  2.6446E-001  
  810.00  2.6292E-001  
  810.50  2.6479E-001  
  811.00  2.6842E-001  
  811.50  2.6937E-001  
  812.00  2.6767E-001  
  812.50  2.6631E-001  
  813.00  2.6585E-001  
  813.50  2.6430E-001  
  814.00  2.6412E-001  
  814.50  2.6503E-001  
  815.00  2.6841E-001  
  815.50  2.7039E-001  
  816.00  2.6993E-001  
  816.50  2.6716E-001  
  817.00  2.6706E-001  
  817.50  2.6789E-001  
  818.00  2.7014E-001  
  818.50  2.6915E-001  
  819.00  2.6736E-001  
  819.50  2.6859E-001  
  820.00  2.6958E-001  
  820.50  2.6967E-001  
  821.00  2.6858E-001  
  821.50  2.6890E-001  
  822.00  2.6782E-001  
  822.50  2.6920E-001  
  823.00  2.7103E-001  
  823.50  2.7269E-001  
  824.00  2.7166E-001  
  824.50  2.6917E-001  
  825.00  2.6776E-001  
  825.50  2.6868E-001  
  826.00  2.7107E-001  
  826.50  2.7243E-001  
  827.00  2.6956E-001  
  827.50  2.6636E-001  
  828.00  2.6593E-001  
  828.50  2.6973E-001  
  829.00  2.7101E-001  
  829.50  2.7026E-001  
  830.00  2.6883E-001  
  830.50  2.7045E-001  
  831.00  2.7310E-001  
  831.50  2.7395E-001  
  832.00  2.7331E-001  
  832.50  2.7288E-001  
  833.00  2.7344E-001  
  833.50  2.7403E-001  
  834.00  2.7531E-001  
  834.50  2.7706E-001  
  835.00  2.7641E-001  
  835.50  2.7466E-001  
  836.00  2.7286E-001  
  836.50  2.7340E-001  
  837.00  2.7272E-001  
  837.50  2.7510E-001  
  838.00  2.7584E-001  
  838.50  2.7570E-001  
  839.00  2.7689E-001  
  839.50  2.7700E-001  
  840.00  2.7663E-001  
  840.50  2.7710E-001  
  841.00  2.7689E-001  
  841.50  2.7519E-001  
  842.00  2.7578E-001  
  842.50  2.7677E-001  
  843.00  2.7716E-001  
  843.50  2.7558E-001  
  844.00  2.7433E-001  
  844.50  2.7419E-001  
  845.00  2.7600E-001  
  845.50  2.7626E-001  
  846.00  2.7590E-001  
  846.50  2.7638E-001  
  847.00  2.7493E-001  
  847.50  2.7525E-001  
  848.00  2.7661E-001  
  848.50  2.7682E-001  
  849.00  2.7637E-001  
  849.50  2.7795E-001  
  850.00  2.8026E-001  
  850.50  2.8342E-001  
  851.00  2.8376E-001  
  851.50  2.8319E-001  
  852.00  2.8169E-001  
  852.50  2.7995E-001  
  853.00  2.7957E-001  
  853.50  2.7927E-001  
  854.00  2.7820E-001  
  854.50  2.7979E-001  
  855.00  2.8342E-001  
  855.50  2.8467E-001  
  856.00  2.8556E-001  
  856.50  2.8561E-001  
  857.00  2.8298E-001  
  857.50  2.7972E-001  
  858.00  2.7939E-001  
  858.50  2.8233E-001  
  859.00  2.8133E-001  
  859.50  2.8038E-001  
  860.00  2.8232E-001  
  860.50  2.8236E-001  
  861.00  2.8218E-001  
  861.50  2.8147E-001  
  862.00  2.8131E-001  
  862.50  2.7910E-001  
  863.00  2.8141E-001  
  863.50  2.8291E-001  
  864.00  2.8141E-001  
  864.50  2.8247E-001  
  865.00  2.8333E-001  
  865.50  2.8509E-001  
  866.00  2.8289E-001  
  866.50  2.8144E-001  
  867.00  2.8280E-001  
  867.50  2.8662E-001  
  868.00  2.8996E-001  
  868.50  2.8939E-001  
  869.00  2.8614E-001  
  869.50  2.8471E-001  
  870.00  2.8707E-001  
  870.50  2.8966E-001  
  871.00  2.8971E-001  
  871.50  2.8833E-001  
  872.00  2.8720E-001  
  872.50  2.9042E-001  
  873.00  2.9280E-001  
  873.50  2.9239E-001  
  874.00  2.9159E-001  
  874.50  2.8796E-001  
  875.00  2.8768E-001  
  875.50  2.8967E-001  
  876.00  2.8862E-001  
  876.50  2.8555E-001  
  877.00  2.8287E-001  
  877.50  2.8495E-001  
  878.00  2.8963E-001  
  878.50  2.9072E-001  
  879.00  2.9063E-001  
  879.50  2.8900E-001  
  880.00  2.9102E-001  
  880.50  2.9288E-001  
  881.00  2.9399E-001  
  881.50  2.9508E-001  
  882.00  2.9392E-001  
  882.50  2.8820E-001  
  883.00  2.8817E-001  
  883.50  2.9129E-001  
  884.00  2.9422E-001  
  884.50  2.9503E-001  
  885.00  2.9374E-001  
  885.50  2.9090E-001  
  886.00  2.9135E-001  
  886.50  2.8769E-001  
  887.00  2.8240E-001  
  887.50  2.8534E-001  
  888.00  2.9202E-001  
  888.50  2.9370E-001  
  889.00  2.8999E-001  
  889.50  2.8641E-001  
  890.00  2.8502E-001  
  890.50  2.8552E-001  
  891.00  2.9023E-001  
  891.50  2.9474E-001  
  892.00  2.9204E-001  
  892.50  2.8922E-001  
  893.00  2.9135E-001  
  893.50  2.9202E-001  
  894.00  2.8958E-001  
  894.50  2.8830E-001  
  895.00  2.9131E-001  
  895.50  2.9425E-001  
  896.00  2.9176E-001  
  896.50  2.9073E-001  
  897.00  2.9517E-001  
  897.50  2.9447E-001  
  898.00  2.9110E-001  
  898.50  2.8864E-001  
  899.00  2.9087E-001  
  899.50  5.7285E-003  
