
# From lspdd.org
# 
# Name: INC Rona PAR30 Domestique
# Indice spectral Valeur 
# MSI 0.11 
# SLI 0.32 
# IPI 1.05 
# Pourcentage de bleu 4.1 
# Caractéristique Valeur 
# CCT calculée (K) 1985 
# CCT du fabricant (K) 2000 
# Tension (V) 130 
# Puissance (W) 65.0 
# Efficacité lumineuse (Lum/W) ND 
#
# Image: '/app/system/img_2s/2748/medium_image2.jpg?1612236524'
# Image: '/app/system/img_1s/2748/medium_image1.jpg?1612236521'
# 

  273.00  0.0000E+000  
  273.50  0.0000E+000  
  274.00  0.0000E+000  
  274.50  0.0000E+000  
  275.00  0.0000E+000  
  275.50  0.0000E+000  
  276.00  0.0000E+000  
  276.50  0.0000E+000  
  277.00  0.0000E+000  
  277.50  0.0000E+000  
  278.00  0.0000E+000  
  278.50  0.0000E+000  
  279.00  0.0000E+000  
  279.50  0.0000E+000  
  280.00  0.0000E+000  
  280.50  0.0000E+000  
  281.00  0.0000E+000  
  281.50  0.0000E+000  
  282.00  0.0000E+000  
  282.50  0.0000E+000  
  283.00  0.0000E+000  
  283.50  0.0000E+000  
  284.00  0.0000E+000  
  284.50  0.0000E+000  
  285.00  0.0000E+000  
  285.50  0.0000E+000  
  286.00  0.0000E+000  
  286.50  0.0000E+000  
  287.00  0.0000E+000  
  287.50  0.0000E+000  
  288.00  0.0000E+000  
  288.50  0.0000E+000  
  289.00  0.0000E+000  
  289.50  0.0000E+000  
  290.00  0.0000E+000  
  290.50  0.0000E+000  
  291.00  0.0000E+000  
  291.50  0.0000E+000  
  292.00  0.0000E+000  
  292.50  0.0000E+000  
  293.00  0.0000E+000  
  293.50  0.0000E+000  
  294.00  0.0000E+000  
  294.50  0.0000E+000  
  295.00  0.0000E+000  
  295.50  0.0000E+000  
  296.00  0.0000E+000  
  296.50  0.0000E+000  
  297.00  0.0000E+000  
  297.50  0.0000E+000  
  298.00  0.0000E+000  
  298.50  0.0000E+000  
  299.00  0.0000E+000  
  299.50  0.0000E+000  
  300.00  0.0000E+000  
  300.50  0.0000E+000  
  301.00  0.0000E+000  
  301.50  0.0000E+000  
  302.00  6.2356E-005  
  302.50  3.1791E-004  
  303.00  2.7578E-004  
  303.50  4.7964E-006  
  304.00  0.0000E+000  
  304.50  0.0000E+000  
  305.00  0.0000E+000  
  305.50  0.0000E+000  
  306.00  0.0000E+000  
  306.50  0.0000E+000  
  307.00  0.0000E+000  
  307.50  0.0000E+000  
  308.00  0.0000E+000  
  308.50  0.0000E+000  
  309.00  0.0000E+000  
  309.50  0.0000E+000  
  310.00  0.0000E+000  
  310.50  0.0000E+000  
  311.00  5.2883E-006  
  311.50  8.8361E-005  
  312.00  2.0592E-004  
  312.50  0.0000E+000  
  313.00  0.0000E+000  
  313.50  0.0000E+000  
  314.00  0.0000E+000  
  314.50  0.0000E+000  
  315.00  0.0000E+000  
  315.50  0.0000E+000  
  316.00  0.0000E+000  
  316.50  4.7881E-005  
  317.00  1.3110E-004  
  317.50  9.0428E-005  
  318.00  1.1564E-005  
  318.50  0.0000E+000  
  319.00  0.0000E+000  
  319.50  0.0000E+000  
  320.00  0.0000E+000  
  320.50  0.0000E+000  
  321.00  0.0000E+000  
  321.50  0.0000E+000  
  322.00  0.0000E+000  
  322.50  2.1695E-005  
  323.00  0.0000E+000  
  323.50  0.0000E+000  
  324.00  0.0000E+000  
  324.50  0.0000E+000  
  325.00  0.0000E+000  
  325.50  0.0000E+000  
  326.00  1.1222E-004  
  326.50  2.2726E-004  
  327.00  1.7669E-004  
  327.50  8.9473E-005  
  328.00  4.3063E-006  
  328.50  0.0000E+000  
  329.00  0.0000E+000  
  329.50  0.0000E+000  
  330.00  0.0000E+000  
  330.50  0.0000E+000  
  331.00  0.0000E+000  
  331.50  0.0000E+000  
  332.00  0.0000E+000  
  332.50  0.0000E+000  
  333.00  0.0000E+000  
  333.50  1.0552E-005  
  334.00  8.5850E-005  
  334.50  7.5347E-005  
  335.00  0.0000E+000  
  335.50  0.0000E+000  
  336.00  0.0000E+000  
  336.50  0.0000E+000  
  337.00  0.0000E+000  
  337.50  0.0000E+000  
  338.00  2.8537E-004  
  338.50  4.4641E-004  
  339.00  3.0097E-004  
  339.50  1.0288E-004  
  340.00  0.0000E+000  
  340.50  0.0000E+000  
  341.00  0.0000E+000  
  341.50  0.0000E+000  
  342.00  0.0000E+000  
  342.50  0.0000E+000  
  343.00  0.0000E+000  
  343.50  0.0000E+000  
  344.00  0.0000E+000  
  344.50  0.0000E+000  
  345.00  0.0000E+000  
  345.50  0.0000E+000  
  346.00  0.0000E+000  
  346.50  0.0000E+000  
  347.00  0.0000E+000  
  347.50  0.0000E+000  
  348.00  0.0000E+000  
  348.50  0.0000E+000  
  349.00  0.0000E+000  
  349.50  0.0000E+000  
  350.00  2.6453E-005  
  350.50  1.1167E-004  
  351.00  1.4295E-005  
  351.50  0.0000E+000  
  352.00  1.3856E-006  
  352.50  0.0000E+000  
  353.00  0.0000E+000  
  353.50  0.0000E+000  
  354.00  0.0000E+000  
  354.50  0.0000E+000  
  355.00  0.0000E+000  
  355.50  0.0000E+000  
  356.00  0.0000E+000  
  356.50  0.0000E+000  
  357.00  0.0000E+000  
  357.50  0.0000E+000  
  358.00  0.0000E+000  
  358.50  0.0000E+000  
  359.00  0.0000E+000  
  359.50  0.0000E+000  
  360.00  0.0000E+000  
  360.50  0.0000E+000  
  361.00  0.0000E+000  
  361.50  0.0000E+000  
  362.00  8.8697E-006  
  362.50  3.0108E-004  
  363.00  3.0531E-004  
  363.50  1.3186E-004  
  364.00  3.7586E-004  
  364.50  6.4338E-004  
  365.00  8.5956E-004  
  365.50  8.2919E-004  
  366.00  8.2561E-004  
  366.50  6.3038E-004  
  367.00  6.4314E-004  
  367.50  4.3599E-004  
  368.00  1.2014E-004  
  368.50  3.6692E-005  
  369.00  3.1613E-005  
  369.50  8.2648E-005  
  370.00  1.2916E-004  
  370.50  3.0984E-004  
  371.00  5.6573E-004  
  371.50  8.1411E-004  
  372.00  1.1222E-003  
  372.50  1.1426E-003  
  373.00  9.8112E-004  
  373.50  1.0329E-003  
  374.00  1.1273E-003  
  374.50  1.3272E-003  
  375.00  1.5943E-003  
  375.50  1.2514E-003  
  376.00  9.4200E-004  
  376.50  8.0925E-004  
  377.00  9.3961E-004  
  377.50  1.1668E-003  
  378.00  1.2357E-003  
  378.50  1.0121E-003  
  379.00  6.8722E-004  
  379.50  7.1531E-004  
  380.00  9.1431E-004  
  380.50  1.1135E-003  
  381.00  1.0751E-003  
  381.50  8.9365E-004  
  382.00  8.9130E-004  
  382.50  1.1534E-003  
  383.00  1.3083E-003  
  383.50  1.0452E-003  
  384.00  4.1067E-004  
  384.50  1.2008E-004  
  385.00  3.2450E-004  
  385.50  6.2991E-004  
  386.00  9.4622E-004  
  386.50  9.1965E-004  
  387.00  7.6410E-004  
  387.50  7.8647E-004  
  388.00  7.4219E-004  
  388.50  6.4740E-004  
  389.00  5.1637E-004  
  389.50  5.5567E-004  
  390.00  4.9161E-004  
  390.50  4.6202E-004  
  391.00  3.4845E-004  
  391.50  1.2211E-004  
  392.00  2.8772E-004  
  392.50  5.5374E-004  
  393.00  8.5928E-004  
  393.50  8.8575E-004  
  394.00  8.3758E-004  
  394.50  8.1230E-004  
  395.00  8.5208E-004  
  395.50  1.0787E-003  
  396.00  1.1881E-003  
  396.50  1.3638E-003  
  397.00  1.4825E-003  
  397.50  1.2747E-003  
  398.00  1.1910E-003  
  398.50  1.1748E-003  
  399.00  1.2890E-003  
  399.50  1.3623E-003  
  400.00  1.1809E-003  
  400.50  8.0552E-004  
  401.00  6.6114E-004  
  401.50  8.8979E-004  
  402.00  1.1261E-003  
  402.50  1.5866E-003  
  403.00  1.5584E-003  
  403.50  1.2966E-003  
  404.00  1.1898E-003  
  404.50  9.5504E-004  
  405.00  8.6140E-004  
  405.50  9.0349E-004  
  406.00  8.0461E-004  
  406.50  1.0024E-003  
  407.00  1.1257E-003  
  407.50  1.2395E-003  
  408.00  1.5047E-003  
  408.50  1.5957E-003  
  409.00  1.7954E-003  
  409.50  1.4868E-003  
  410.00  9.9268E-004  
  410.50  7.1843E-004  
  411.00  6.7153E-004  
  411.50  8.7796E-004  
  412.00  1.3041E-003  
  412.50  1.4780E-003  
  413.00  1.4390E-003  
  413.50  1.2388E-003  
  414.00  9.6804E-004  
  414.50  7.8781E-004  
  415.00  9.4889E-004  
  415.50  1.2465E-003  
  416.00  1.2351E-003  
  416.50  1.3375E-003  
  417.00  1.2881E-003  
  417.50  1.3696E-003  
  418.00  1.5461E-003  
  418.50  1.5131E-003  
  419.00  1.5974E-003  
  419.50  1.7693E-003  
  420.00  1.7106E-003  
  420.50  1.7374E-003  
  421.00  1.8800E-003  
  421.50  1.7674E-003  
  422.00  1.7156E-003  
  422.50  1.5761E-003  
  423.00  1.4627E-003  
  423.50  1.6227E-003  
  424.00  1.5829E-003  
  424.50  1.5638E-003  
  425.00  1.4967E-003  
  425.50  1.5725E-003  
  426.00  1.6685E-003  
  426.50  1.8772E-003  
  427.00  1.9841E-003  
  427.50  2.1037E-003  
  428.00  2.1160E-003  
  428.50  2.0094E-003  
  429.00  1.8096E-003  
  429.50  1.6218E-003  
  430.00  1.5329E-003  
  430.50  1.5484E-003  
  431.00  1.6259E-003  
  431.50  1.8356E-003  
  432.00  1.9102E-003  
  432.50  1.8148E-003  
  433.00  1.9179E-003  
  433.50  1.7725E-003  
  434.00  2.1347E-003  
  434.50  2.3565E-003  
  435.00  2.5398E-003  
  435.50  2.6190E-003  
  436.00  2.3785E-003  
  436.50  2.0540E-003  
  437.00  1.7713E-003  
  437.50  1.4240E-003  
  438.00  1.4936E-003  
  438.50  1.5647E-003  
  439.00  1.8508E-003  
  439.50  2.0523E-003  
  440.00  2.0597E-003  
  440.50  1.9582E-003  
  441.00  2.1225E-003  
  441.50  2.3324E-003  
  442.00  2.6237E-003  
  442.50  2.6715E-003  
  443.00  2.6468E-003  
  443.50  2.6036E-003  
  444.00  2.7048E-003  
  444.50  2.7405E-003  
  445.00  2.6694E-003  
  445.50  2.4874E-003  
  446.00  2.3402E-003  
  446.50  2.4399E-003  
  447.00  2.6061E-003  
  447.50  2.6487E-003  
  448.00  2.5716E-003  
  448.50  2.2960E-003  
  449.00  2.4430E-003  
  449.50  2.6062E-003  
  450.00  2.7199E-003  
  450.50  2.9506E-003  
  451.00  2.9730E-003  
  451.50  3.0399E-003  
  452.00  3.1713E-003  
  452.50  3.2558E-003  
  453.00  3.2291E-003  
  453.50  3.0432E-003  
  454.00  2.7781E-003  
  454.50  2.7745E-003  
  455.00  2.9387E-003  
  455.50  3.0116E-003  
  456.00  3.0740E-003  
  456.50  2.9434E-003  
  457.00  2.7117E-003  
  457.50  2.7024E-003  
  458.00  2.6185E-003  
  458.50  3.0546E-003  
  459.00  3.4747E-003  
  459.50  3.7935E-003  
  460.00  4.1407E-003  
  460.50  4.1649E-003  
  461.00  4.0535E-003  
  461.50  3.8078E-003  
  462.00  3.4641E-003  
  462.50  3.4008E-003  
  463.00  3.4601E-003  
  463.50  3.7339E-003  
  464.00  4.0198E-003  
  464.50  4.1464E-003  
  465.00  4.4590E-003  
  465.50  4.7683E-003  
  466.00  5.1610E-003  
  466.50  5.4630E-003  
  467.00  5.5003E-003  
  467.50  5.6504E-003  
  468.00  5.6930E-003  
  468.50  5.7226E-003  
  469.00  5.5054E-003  
  469.50  5.3725E-003  
  470.00  5.3688E-003  
  470.50  5.4983E-003  
  471.00  5.4564E-003  
  471.50  5.2911E-003  
  472.00  5.2886E-003  
  472.50  5.6696E-003  
  473.00  6.1417E-003  
  473.50  6.7202E-003  
  474.00  6.8418E-003  
  474.50  6.8333E-003  
  475.00  6.8032E-003  
  475.50  6.6963E-003  
  476.00  6.8866E-003  
  476.50  7.1411E-003  
  477.00  7.3735E-003  
  477.50  7.5470E-003  
  478.00  7.6224E-003  
  478.50  7.6509E-003  
  479.00  7.8035E-003  
  479.50  8.0430E-003  
  480.00  8.4828E-003  
  480.50  8.8724E-003  
  481.00  9.0987E-003  
  481.50  9.2369E-003  
  482.00  9.1595E-003  
  482.50  9.2746E-003  
  483.00  9.3859E-003  
  483.50  9.5561E-003  
  484.00  9.7903E-003  
  484.50  9.8983E-003  
  485.00  1.0071E-002  
  485.50  1.0201E-002  
  486.00  1.0316E-002  
  486.50  1.0530E-002  
  487.00  1.0836E-002  
  487.50  1.1159E-002  
  488.00  1.1484E-002  
  488.50  1.1765E-002  
  489.00  1.1959E-002  
  489.50  1.2058E-002  
  490.00  1.2162E-002  
  490.50  1.2378E-002  
  491.00  1.2664E-002  
  491.50  1.3024E-002  
  492.00  1.3389E-002  
  492.50  1.3688E-002  
  493.00  1.3797E-002  
  493.50  1.3944E-002  
  494.00  1.4195E-002  
  494.50  1.4684E-002  
  495.00  1.5189E-002  
  495.50  1.5488E-002  
  496.00  1.5706E-002  
  496.50  1.6017E-002  
  497.00  1.6364E-002  
  497.50  1.6667E-002  
  498.00  1.7007E-002  
  498.50  1.7243E-002  
  499.00  1.7602E-002  
  499.50  1.7974E-002  
  500.00  1.8296E-002  
  500.50  1.8581E-002  
  501.00  1.9034E-002  
  501.50  1.9428E-002  
  502.00  1.9864E-002  
  502.50  2.0302E-002  
  503.00  2.0697E-002  
  503.50  2.1235E-002  
  504.00  2.1672E-002  
  504.50  2.2171E-002  
  505.00  2.2611E-002  
  505.50  2.3103E-002  
  506.00  2.3503E-002  
  506.50  2.3889E-002  
  507.00  2.4350E-002  
  507.50  2.4845E-002  
  508.00  2.5361E-002  
  508.50  2.5832E-002  
  509.00  2.6277E-002  
  509.50  2.6785E-002  
  510.00  2.7350E-002  
  510.50  2.7917E-002  
  511.00  2.8389E-002  
  511.50  2.8908E-002  
  512.00  2.9342E-002  
  512.50  2.9860E-002  
  513.00  3.0359E-002  
  513.50  3.0867E-002  
  514.00  3.1361E-002  
  514.50  3.1783E-002  
  515.00  3.2197E-002  
  515.50  3.2738E-002  
  516.00  3.3414E-002  
  516.50  3.4042E-002  
  517.00  3.4486E-002  
  517.50  3.4876E-002  
  518.00  3.5516E-002  
  518.50  3.6141E-002  
  519.00  3.6817E-002  
  519.50  3.7158E-002  
  520.00  3.7588E-002  
  520.50  3.7981E-002  
  521.00  3.8523E-002  
  521.50  3.9115E-002  
  522.00  3.9712E-002  
  522.50  4.0289E-002  
  523.00  4.0858E-002  
  523.50  4.1555E-002  
  524.00  4.2154E-002  
  524.50  4.2616E-002  
  525.00  4.3060E-002  
  525.50  4.3645E-002  
  526.00  4.4553E-002  
  526.50  4.5428E-002  
  527.00  4.6279E-002  
  527.50  4.6844E-002  
  528.00  4.7245E-002  
  528.50  4.7738E-002  
  529.00  4.8171E-002  
  529.50  4.8647E-002  
  530.00  4.9182E-002  
  530.50  4.9768E-002  
  531.00  5.0484E-002  
  531.50  5.1361E-002  
  532.00  5.2090E-002  
  532.50  5.2893E-002  
  533.00  5.3424E-002  
  533.50  5.3925E-002  
  534.00  5.4496E-002  
  534.50  5.5249E-002  
  535.00  5.6105E-002  
  535.50  5.6864E-002  
  536.00  5.7378E-002  
  536.50  5.7907E-002  
  537.00  5.8619E-002  
  537.50  5.9349E-002  
  538.00  5.9856E-002  
  538.50  6.0143E-002  
  539.00  6.0550E-002  
  539.50  6.1150E-002  
  540.00  6.1882E-002  
  540.50  6.2648E-002  
  541.00  6.3589E-002  
  541.50  6.4367E-002  
  542.00  6.5017E-002  
  542.50  6.5649E-002  
  543.00  6.6319E-002  
  543.50  6.7098E-002  
  544.00  6.7747E-002  
  544.50  6.8253E-002  
  545.00  6.8780E-002  
  545.50  6.9272E-002  
  546.00  6.9873E-002  
  546.50  7.0571E-002  
  547.00  7.1392E-002  
  547.50  7.1935E-002  
  548.00  7.2512E-002  
  548.50  7.3199E-002  
  549.00  7.4233E-002  
  549.50  7.5499E-002  
  550.00  7.6245E-002  
  550.50  7.6993E-002  
  551.00  7.7586E-002  
  551.50  7.8224E-002  
  552.00  7.8819E-002  
  552.50  7.9233E-002  
  553.00  7.9708E-002  
  553.50  8.0497E-002  
  554.00  8.1457E-002  
  554.50  8.2392E-002  
  555.00  8.3291E-002  
  555.50  8.3834E-002  
  556.00  8.4328E-002  
  556.50  8.5031E-002  
  557.00  8.5934E-002  
  557.50  8.6988E-002  
  558.00  8.7919E-002  
  558.50  8.8380E-002  
  559.00  8.8830E-002  
  559.50  8.9479E-002  
  560.00  9.0390E-002  
  560.50  9.1353E-002  
  561.00  9.2170E-002  
  561.50  9.2877E-002  
  562.00  9.3520E-002  
  562.50  9.4395E-002  
  563.00  9.5093E-002  
  563.50  9.5864E-002  
  564.00  9.6494E-002  
  564.50  9.7411E-002  
  565.00  9.8463E-002  
  565.50  9.9456E-002  
  566.00  1.0010E-001  
  566.50  1.0059E-001  
  567.00  1.0106E-001  
  567.50  1.0168E-001  
  568.00  1.0216E-001  
  568.50  1.0271E-001  
  569.00  1.0354E-001  
  569.50  1.0437E-001  
  570.00  1.0534E-001  
  570.50  1.0600E-001  
  571.00  1.0679E-001  
  571.50  1.0742E-001  
  572.00  1.0776E-001  
  572.50  1.0821E-001  
  573.00  1.0892E-001  
  573.50  1.0972E-001  
  574.00  1.1046E-001  
  574.50  1.1092E-001  
  575.00  1.1172E-001  
  575.50  1.1260E-001  
  576.00  1.1370E-001  
  576.50  1.1480E-001  
  577.00  1.1573E-001  
  577.50  1.1643E-001  
  578.00  1.1714E-001  
  578.50  1.1774E-001  
  579.00  1.1847E-001  
  579.50  1.1897E-001  
  580.00  1.1977E-001  
  580.50  1.2046E-001  
  581.00  1.2133E-001  
  581.50  1.2207E-001  
  582.00  1.2266E-001  
  582.50  1.2303E-001  
  583.00  1.2325E-001  
  583.50  1.2379E-001  
  584.00  1.2476E-001  
  584.50  1.2580E-001  
  585.00  1.2655E-001  
  585.50  1.2706E-001  
  586.00  1.2735E-001  
  586.50  1.2804E-001  
  587.00  1.2869E-001  
  587.50  1.2977E-001  
  588.00  1.3041E-001  
  588.50  1.3114E-001  
  589.00  1.3155E-001  
  589.50  1.3229E-001  
  590.00  1.3310E-001  
  590.50  1.3387E-001  
  591.00  1.3496E-001  
  591.50  1.3621E-001  
  592.00  1.3752E-001  
  592.50  1.3814E-001  
  593.00  1.3878E-001  
  593.50  1.3941E-001  
  594.00  1.4004E-001  
  594.50  1.4042E-001  
  595.00  1.4072E-001  
  595.50  1.4141E-001  
  596.00  1.4239E-001  
  596.50  1.4309E-001  
  597.00  1.4375E-001  
  597.50  1.4432E-001  
  598.00  1.4478E-001  
  598.50  1.4499E-001  
  599.00  1.4497E-001  
  599.50  1.4567E-001  
  600.00  1.4694E-001  
  600.50  1.4820E-001  
  601.00  1.4904E-001  
  601.50  1.4980E-001  
  602.00  1.5057E-001  
  602.50  1.5148E-001  
  603.00  1.5209E-001  
  603.50  1.5257E-001  
  604.00  1.5302E-001  
  604.50  1.5335E-001  
  605.00  1.5380E-001  
  605.50  1.5463E-001  
  606.00  1.5513E-001  
  606.50  1.5592E-001  
  607.00  1.5597E-001  
  607.50  1.5651E-001  
  608.00  1.5726E-001  
  608.50  1.5807E-001  
  609.00  1.5880E-001  
  609.50  1.5939E-001  
  610.00  1.5983E-001  
  610.50  1.6017E-001  
  611.00  1.6066E-001  
  611.50  1.6151E-001  
  612.00  1.6294E-001  
  612.50  1.6381E-001  
  613.00  1.6454E-001  
  613.50  1.6514E-001  
  614.00  1.6576E-001  
  614.50  1.6643E-001  
  615.00  1.6675E-001  
  615.50  1.6727E-001  
  616.00  1.6746E-001  
  616.50  1.6769E-001  
  617.00  1.6793E-001  
  617.50  1.6831E-001  
  618.00  1.6884E-001  
  618.50  1.6925E-001  
  619.00  1.6966E-001  
  619.50  1.7045E-001  
  620.00  1.7096E-001  
  620.50  1.7154E-001  
  621.00  1.7204E-001  
  621.50  1.7238E-001  
  622.00  1.7298E-001  
  622.50  1.7349E-001  
  623.00  1.7434E-001  
  623.50  1.7521E-001  
  624.00  1.7619E-001  
  624.50  1.7672E-001  
  625.00  1.7729E-001  
  625.50  1.7755E-001  
  626.00  1.7787E-001  
  626.50  1.7777E-001  
  627.00  1.7760E-001  
  627.50  1.7781E-001  
  628.00  1.7849E-001  
  628.50  1.7937E-001  
  629.00  1.7959E-001  
  629.50  1.7965E-001  
  630.00  1.8035E-001  
  630.50  1.8128E-001  
  631.00  1.8264E-001  
  631.50  1.8355E-001  
  632.00  1.8388E-001  
  632.50  1.8373E-001  
  633.00  1.8382E-001  
  633.50  1.8494E-001  
  634.00  1.8656E-001  
  634.50  1.8746E-001  
  635.00  1.8763E-001  
  635.50  1.8738E-001  
  636.00  1.8751E-001  
  636.50  1.8787E-001  
  637.00  1.8870E-001  
  637.50  1.8903E-001  
  638.00  1.8905E-001  
  638.50  1.8940E-001  
  639.00  1.9034E-001  
  639.50  1.9174E-001  
  640.00  1.9225E-001  
  640.50  1.9225E-001  
  641.00  1.9255E-001  
  641.50  1.9319E-001  
  642.00  1.9396E-001  
  642.50  1.9448E-001  
  643.00  1.9527E-001  
  643.50  1.9591E-001  
  644.00  1.9623E-001  
  644.50  1.9612E-001  
  645.00  1.9617E-001  
  645.50  1.9641E-001  
  646.00  1.9742E-001  
  646.50  1.9900E-001  
  647.00  2.0056E-001  
  647.50  2.0096E-001  
  648.00  2.0076E-001  
  648.50  2.0079E-001  
  649.00  2.0118E-001  
  649.50  2.0185E-001  
  650.00  2.0225E-001  
  650.50  2.0258E-001  
  651.00  2.0264E-001  
  651.50  2.0286E-001  
  652.00  2.0368E-001  
  652.50  2.0410E-001  
  653.00  2.0475E-001  
  653.50  2.0523E-001  
  654.00  2.0595E-001  
  654.50  2.0684E-001  
  655.00  2.0764E-001  
  655.50  2.0831E-001  
  656.00  2.0867E-001  
  656.50  2.0887E-001  
  657.00  2.0897E-001  
  657.50  2.0933E-001  
  658.00  2.1023E-001  
  658.50  2.1077E-001  
  659.00  2.1079E-001  
  659.50  2.1027E-001  
  660.00  2.1106E-001  
  660.50  2.1201E-001  
  661.00  2.1340E-001  
  661.50  2.1406E-001  
  662.00  2.1401E-001  
  662.50  2.1410E-001  
  663.00  2.1458E-001  
  663.50  2.1580E-001  
  664.00  2.1618E-001  
  664.50  2.1601E-001  
  665.00  2.1560E-001  
  665.50  2.1517E-001  
  666.00  2.1537E-001  
  666.50  2.1603E-001  
  667.00  2.1672E-001  
  667.50  2.1715E-001  
  668.00  2.1719E-001  
  668.50  2.1747E-001  
  669.00  2.1809E-001  
  669.50  2.1881E-001  
  670.00  2.1912E-001  
  670.50  2.1933E-001  
  671.00  2.1959E-001  
  671.50  2.2026E-001  
  672.00  2.2051E-001  
  672.50  2.2129E-001  
  673.00  2.2217E-001  
  673.50  2.2250E-001  
  674.00  2.2187E-001  
  674.50  2.2162E-001  
  675.00  2.2164E-001  
  675.50  2.2204E-001  
  676.00  2.2270E-001  
  676.50  2.2376E-001  
  677.00  2.2467E-001  
  677.50  2.2449E-001  
  678.00  2.2411E-001  
  678.50  2.2448E-001  
  679.00  2.2485E-001  
  679.50  2.2523E-001  
  680.00  2.2546E-001  
  680.50  2.2613E-001  
  681.00  2.2654E-001  
  681.50  2.2655E-001  
  682.00  2.2661E-001  
  682.50  2.2754E-001  
  683.00  2.2812E-001  
  683.50  2.2842E-001  
  684.00  2.2755E-001  
  684.50  2.2688E-001  
  685.00  2.2662E-001  
  685.50  2.2787E-001  
  686.00  2.2919E-001  
  686.50  2.3022E-001  
  687.00  2.3010E-001  
  687.50  2.2993E-001  
  688.00  2.2998E-001  
  688.50  2.3071E-001  
  689.00  2.3150E-001  
  689.50  2.3171E-001  
  690.00  2.3224E-001  
  690.50  2.3315E-001  
  691.00  2.3316E-001  
  691.50  2.3178E-001  
  692.00  2.3080E-001  
  692.50  2.3107E-001  
  693.00  2.3173E-001  
  693.50  2.3287E-001  
  694.00  2.3399E-001  
  694.50  2.3485E-001  
  695.00  2.3464E-001  
  695.50  2.3449E-001  
  696.00  2.3496E-001  
  696.50  2.3570E-001  
  697.00  2.3629E-001  
  697.50  2.3635E-001  
  698.00  2.3635E-001  
  698.50  2.3659E-001  
  699.00  2.3708E-001  
  699.50  2.3720E-001  
  700.00  2.3723E-001  
  700.50  2.3768E-001  
  701.00  2.3891E-001  
  701.50  2.3941E-001  
  702.00  2.3934E-001  
  702.50  2.3903E-001  
  703.00  2.3889E-001  
  703.50  2.3904E-001  
  704.00  2.3912E-001  
  704.50  2.3964E-001  
  705.00  2.4007E-001  
  705.50  2.4024E-001  
  706.00  2.4054E-001  
  706.50  2.4117E-001  
  707.00  2.4166E-001  
  707.50  2.4216E-001  
  708.00  2.4198E-001  
  708.50  2.4234E-001  
  709.00  2.4282E-001  
  709.50  2.4368E-001  
  710.00  2.4392E-001  
  710.50  2.4438E-001  
  711.00  2.4503E-001  
  711.50  2.4478E-001  
  712.00  2.4521E-001  
  712.50  2.4585E-001  
  713.00  2.4710E-001  
  713.50  2.4708E-001  
  714.00  2.4720E-001  
  714.50  2.4709E-001  
  715.00  2.4717E-001  
  715.50  2.4699E-001  
  716.00  2.4743E-001  
  716.50  2.4810E-001  
  717.00  2.4834E-001  
  717.50  2.4778E-001  
  718.00  2.4718E-001  
  718.50  2.4698E-001  
  719.00  2.4795E-001  
  719.50  2.4893E-001  
  720.00  2.4934E-001  
  720.50  2.4850E-001  
  721.00  2.4774E-001  
  721.50  2.4707E-001  
  722.00  2.4794E-001  
  722.50  2.4977E-001  
  723.00  2.5120E-001  
  723.50  2.5059E-001  
  724.00  2.4979E-001  
  724.50  2.5034E-001  
  725.00  2.5260E-001  
  725.50  2.5408E-001  
  726.00  2.5463E-001  
  726.50  2.5393E-001  
  727.00  2.5316E-001  
  727.50  2.5256E-001  
  728.00  2.5256E-001  
  728.50  2.5389E-001  
  729.00  2.5551E-001  
  729.50  2.5622E-001  
  730.00  2.5659E-001  
  730.50  2.5658E-001  
  731.00  2.5639E-001  
  731.50  2.5580E-001  
  732.00  2.5499E-001  
  732.50  2.5484E-001  
  733.00  2.5501E-001  
  733.50  2.5513E-001  
  734.00  2.5607E-001  
  734.50  2.5653E-001  
  735.00  2.5710E-001  
  735.50  2.5654E-001  
  736.00  2.5722E-001  
  736.50  2.5791E-001  
  737.00  2.5813E-001  
  737.50  2.5846E-001  
  738.00  2.5908E-001  
  738.50  2.5941E-001  
  739.00  2.5905E-001  
  739.50  2.5875E-001  
  740.00  2.5869E-001  
  740.50  2.5876E-001  
  741.00  2.5865E-001  
  741.50  2.5882E-001  
  742.00  2.5909E-001  
  742.50  2.5933E-001  
  743.00  2.5983E-001  
  743.50  2.5967E-001  
  744.00  2.5939E-001  
  744.50  2.5908E-001  
  745.00  2.6001E-001  
  745.50  2.6083E-001  
  746.00  2.6139E-001  
  746.50  2.6208E-001  
  747.00  2.6267E-001  
  747.50  2.6368E-001  
  748.00  2.6378E-001  
  748.50  2.6407E-001  
  749.00  2.6420E-001  
  749.50  2.6434E-001  
  750.00  2.6444E-001  
  750.50  2.6442E-001  
  751.00  2.6493E-001  
  751.50  2.6540E-001  
  752.00  2.6576E-001  
  752.50  2.6613E-001  
  753.00  2.6557E-001  
  753.50  2.6507E-001  
  754.00  2.6507E-001  
  754.50  2.6649E-001  
  755.00  2.6752E-001  
  755.50  2.6729E-001  
  756.00  2.6710E-001  
  756.50  2.6644E-001  
  757.00  2.6715E-001  
  757.50  2.6780E-001  
  758.00  2.6823E-001  
  758.50  2.6740E-001  
  759.00  2.6722E-001  
  759.50  2.6792E-001  
  760.00  2.6890E-001  
  760.50  2.6884E-001  
  761.00  2.6789E-001  
  761.50  2.6795E-001  
  762.00  2.6897E-001  
  762.50  2.6867E-001  
  763.00  2.6821E-001  
  763.50  2.6826E-001  
  764.00  2.6991E-001  
  764.50  2.7095E-001  
  765.00  2.7230E-001  
  765.50  2.7315E-001  
  766.00  2.7318E-001  
  766.50  2.7274E-001  
  767.00  2.7225E-001  
  767.50  2.7146E-001  
  768.00  2.7186E-001  
  768.50  2.7228E-001  
  769.00  2.7297E-001  
  769.50  2.7217E-001  
  770.00  2.7220E-001  
  770.50  2.7272E-001  
  771.00  2.7387E-001  
  771.50  2.7402E-001  
  772.00  2.7346E-001  
  772.50  2.7330E-001  
  773.00  2.7337E-001  
  773.50  2.7436E-001  
  774.00  2.7558E-001  
  774.50  2.7599E-001  
  775.00  2.7405E-001  
  775.50  2.7335E-001  
  776.00  2.7338E-001  
  776.50  2.7415E-001  
  777.00  2.7440E-001  
  777.50  2.7589E-001  
  778.00  2.7750E-001  
  778.50  2.7776E-001  
  779.00  2.7744E-001  
  779.50  2.7613E-001  
  780.00  2.7618E-001  
  780.50  2.7698E-001  
  781.00  2.7792E-001  
  781.50  2.7758E-001  
  782.00  2.7731E-001  
  782.50  2.7710E-001  
  783.00  2.7734E-001  
  783.50  2.7863E-001  
  784.00  2.8048E-001  
  784.50  2.8074E-001  
  785.00  2.7963E-001  
  785.50  2.7873E-001  
  786.00  2.7876E-001  
  786.50  2.7999E-001  
  787.00  2.7978E-001  
  787.50  2.7879E-001  
  788.00  2.7786E-001  
  788.50  2.7829E-001  
  789.00  2.7985E-001  
  789.50  2.8021E-001  
  790.00  2.8091E-001  
  790.50  2.8160E-001  
  791.00  2.8241E-001  
  791.50  2.8293E-001  
  792.00  2.8448E-001  
  792.50  2.8458E-001  
  793.00  2.8493E-001  
  793.50  2.8290E-001  
  794.00  2.8199E-001  
  794.50  2.8317E-001  
  795.00  2.8456E-001  
  795.50  2.8455E-001  
  796.00  2.8494E-001  
  796.50  2.8681E-001  
  797.00  2.8770E-001  
  797.50  2.8674E-001  
  798.00  2.8396E-001  
  798.50  2.8478E-001  
  799.00  2.8629E-001  
  799.50  2.8652E-001  
  800.00  2.8510E-001  
  800.50  2.8595E-001  
  801.00  2.8641E-001  
  801.50  2.8648E-001  
  802.00  2.8557E-001  
  802.50  2.8662E-001  
  803.00  2.8759E-001  
  803.50  2.8773E-001  
  804.00  2.8721E-001  
  804.50  2.8849E-001  
  805.00  2.8811E-001  
  805.50  2.8740E-001  
  806.00  2.8719E-001  
  806.50  2.8801E-001  
  807.00  2.8780E-001  
  807.50  2.8848E-001  
  808.00  2.8947E-001  
  808.50  2.9008E-001  
  809.00  2.9104E-001  
  809.50  2.9100E-001  
  810.00  2.9008E-001  
  810.50  2.8913E-001  
  811.00  2.8985E-001  
  811.50  2.9054E-001  
  812.00  2.9075E-001  
  812.50  2.9109E-001  
  813.00  2.9233E-001  
  813.50  2.9330E-001  
  814.00  2.9469E-001  
  814.50  2.9610E-001  
  815.00  2.9564E-001  
  815.50  2.9449E-001  
  816.00  2.9508E-001  
  816.50  2.9601E-001  
  817.00  2.9636E-001  
  817.50  2.9506E-001  
  818.00  2.9570E-001  
  818.50  2.9556E-001  
  819.00  2.9468E-001  
  819.50  2.9308E-001  
  820.00  2.9492E-001  
  820.50  2.9715E-001  
  821.00  2.9625E-001  
  821.50  2.9489E-001  
  822.00  2.9472E-001  
  822.50  2.9513E-001  
  823.00  2.9564E-001  
  823.50  2.9609E-001  
  824.00  2.9706E-001  
  824.50  2.9575E-001  
  825.00  2.9376E-001  
  825.50  2.9479E-001  
  826.00  2.9685E-001  
  826.50  2.9758E-001  
  827.00  2.9829E-001  
  827.50  2.9883E-001  
  828.00  2.9973E-001  
  828.50  3.0049E-001  
  829.00  2.9806E-001  
  829.50  2.9723E-001  
  830.00  2.9893E-001  
  830.50  3.0124E-001  
  831.00  3.0192E-001  
  831.50  3.0400E-001  
  832.00  3.0367E-001  
  832.50  3.0312E-001  
  833.00  3.0331E-001  
  833.50  3.0359E-001  
  834.00  3.0277E-001  
  834.50  3.0509E-001  
  835.00  3.0330E-001  
  835.50  3.0238E-001  
  836.00  3.0559E-001  
  836.50  3.0965E-001  
  837.00  3.1162E-001  
  837.50  3.0931E-001  
  838.00  3.0511E-001  
  838.50  3.0439E-001  
  839.00  3.0443E-001  
  839.50  3.0610E-001  
  840.00  3.0888E-001  
  840.50  3.0903E-001  
  841.00  3.0804E-001  
  841.50  3.0721E-001  
  842.00  3.0821E-001  
  842.50  3.0861E-001  
  843.00  3.0890E-001  
  843.50  3.0879E-001  
  844.00  3.0838E-001  
  844.50  3.0848E-001  
  845.00  3.1017E-001  
  845.50  3.0862E-001  
  846.00  3.0729E-001  
  846.50  3.0694E-001  
  847.00  3.0783E-001  
  847.50  3.0777E-001  
  848.00  3.0757E-001  
  848.50  3.0989E-001  
  849.00  3.1424E-001  
  849.50  3.1526E-001  
  850.00  3.1384E-001  
  850.50  3.1264E-001  
  851.00  3.1080E-001  
  851.50  3.0977E-001  
  852.00  3.1075E-001  
  852.50  3.1275E-001  
  853.00  3.1672E-001  
  853.50  3.1933E-001  
  854.00  3.1696E-001  
  854.50  3.1375E-001  
  855.00  3.1106E-001  
  855.50  3.1192E-001  
  856.00  3.1413E-001  
  856.50  3.1803E-001  
  857.00  3.1917E-001  
  857.50  3.1706E-001  
  858.00  3.1530E-001  
  858.50  3.1633E-001  
  859.00  3.1817E-001  
  859.50  3.2080E-001  
  860.00  3.2177E-001  
  860.50  3.2115E-001  
  861.00  3.1760E-001  
  861.50  3.1516E-001  
  862.00  3.1736E-001  
  862.50  3.2121E-001  
  863.00  3.2305E-001  
  863.50  3.2420E-001  
  864.00  3.2520E-001  
  864.50  3.2260E-001  
  865.00  3.1767E-001  
  865.50  3.1575E-001  
  866.00  3.1905E-001  
  866.50  3.2314E-001  
  867.00  3.2215E-001  
  867.50  3.2589E-001  
  868.00  3.3079E-001  
  868.50  3.3044E-001  
  869.00  3.2735E-001  
  869.50  3.2892E-001  
  870.00  3.3098E-001  
  870.50  3.3117E-001  
  871.00  3.2739E-001  
  871.50  3.2614E-001  
  872.00  3.2452E-001  
  872.50  3.2592E-001  
  873.00  3.2750E-001  
  873.50  3.3065E-001  
  874.00  3.3383E-001  
  874.50  3.3171E-001  
  875.00  3.2812E-001  
  875.50  3.2626E-001  
  876.00  3.2661E-001  
  876.50  3.2697E-001  
  877.00  3.2705E-001  
  877.50  3.2816E-001  
  878.00  3.2630E-001  
  878.50  3.2526E-001  
  879.00  3.2861E-001  
  879.50  3.3573E-001  
  880.00  3.3827E-001  
  880.50  3.3705E-001  
  881.00  3.3470E-001  
  881.50  3.3097E-001  
  882.00  3.3044E-001  
  882.50  3.3362E-001  
  883.00  3.3360E-001  
  883.50  3.3363E-001  
  884.00  3.3380E-001  
  884.50  3.3280E-001  
  885.00  3.3504E-001  
  885.50  3.3373E-001  
  886.00  3.3026E-001  
  886.50  3.3160E-001  
  887.00  3.3237E-001  
  887.50  3.3251E-001  
  888.00  3.3406E-001  
  888.50  3.3772E-001  
  889.00  3.3982E-001  
  889.50  3.4090E-001  
  890.00  3.4062E-001  
  890.50  3.4040E-001  
  891.00  3.4371E-001  
  891.50  3.4594E-001  
  892.00  3.4207E-001  
  892.50  3.3539E-001  
  893.00  3.3630E-001  
  893.50  3.3841E-001  
  894.00  3.3905E-001  
  894.50  3.3700E-001  
  895.00  3.4006E-001  
  895.50  3.4307E-001  
  896.00  3.4321E-001  
  896.50  3.4271E-001  
  897.00  3.4075E-001  
  897.50  3.3519E-001  
  898.00  3.3382E-001  
  898.50  3.3627E-001  
  899.00  3.4235E-001  
  899.50  6.8005E-003  
