
# From lspdd.org
# 
# Name: INC Globe A19 Domestique
# Indice spectral Valeur 
# MSI 0.13 
# SLI 0.10 
# IPI 3.39 
# Pourcentage de bleu 1.1 
# Caractéristique Valeur 
# CCT calculée (K) 782 
# CCT du fabricant (K) ND 
# Tension (V) 130 
# Puissance (W) 60.0 
# Efficacité lumineuse (Lum/W) ND 
#
# Image: '/app/system/img_1s/2751/medium_image1.jpg?1612236533'
# 

  273.00  0.0000E+000  
  273.50  0.0000E+000  
  274.00  0.0000E+000  
  274.50  0.0000E+000  
  275.00  0.0000E+000  
  275.50  0.0000E+000  
  276.00  0.0000E+000  
  276.50  0.0000E+000  
  277.00  0.0000E+000  
  277.50  0.0000E+000  
  278.00  0.0000E+000  
  278.50  0.0000E+000  
  279.00  0.0000E+000  
  279.50  0.0000E+000  
  280.00  0.0000E+000  
  280.50  0.0000E+000  
  281.00  0.0000E+000  
  281.50  0.0000E+000  
  282.00  0.0000E+000  
  282.50  0.0000E+000  
  283.00  0.0000E+000  
  283.50  0.0000E+000  
  284.00  0.0000E+000  
  284.50  0.0000E+000  
  285.00  0.0000E+000  
  285.50  0.0000E+000  
  286.00  0.0000E+000  
  286.50  0.0000E+000  
  287.00  0.0000E+000  
  287.50  0.0000E+000  
  288.00  0.0000E+000  
  288.50  0.0000E+000  
  289.00  0.0000E+000  
  289.50  0.0000E+000  
  290.00  0.0000E+000  
  290.50  0.0000E+000  
  291.00  0.0000E+000  
  291.50  0.0000E+000  
  292.00  0.0000E+000  
  292.50  0.0000E+000  
  293.00  0.0000E+000  
  293.50  0.0000E+000  
  294.00  0.0000E+000  
  294.50  0.0000E+000  
  295.00  0.0000E+000  
  295.50  0.0000E+000  
  296.00  0.0000E+000  
  296.50  0.0000E+000  
  297.00  0.0000E+000  
  297.50  0.0000E+000  
  298.00  0.0000E+000  
  298.50  0.0000E+000  
  299.00  0.0000E+000  
  299.50  0.0000E+000  
  300.00  2.2633E-004  
  300.50  6.3959E-004  
  301.00  6.8668E-004  
  301.50  8.5789E-004  
  302.00  1.0159E-003  
  302.50  1.0915E-003  
  303.00  1.0518E-003  
  303.50  8.0372E-004  
  304.00  6.1605E-004  
  304.50  3.4433E-004  
  305.00  2.0102E-004  
  305.50  4.0146E-004  
  306.00  4.3564E-004  
  306.50  5.3739E-004  
  307.00  6.4896E-004  
  307.50  8.4613E-004  
  308.00  1.1526E-003  
  308.50  1.3699E-003  
  309.00  1.2613E-003  
  309.50  9.7892E-004  
  310.00  5.8555E-004  
  310.50  4.2540E-004  
  311.00  7.0224E-004  
  311.50  1.3175E-003  
  312.00  2.0254E-003  
  312.50  2.4753E-003  
  313.00  2.3105E-003  
  313.50  1.6490E-003  
  314.00  1.0055E-003  
  314.50  8.1384E-004  
  315.00  8.7259E-004  
  315.50  7.7209E-004  
  316.00  6.1057E-004  
  316.50  2.7661E-004  
  317.00  3.8366E-005  
  317.50  7.6160E-006  
  318.00  5.3775E-005  
  318.50  7.6962E-005  
  319.00  8.5564E-005  
  319.50  8.4247E-005  
  320.00  4.8447E-004  
  320.50  8.2611E-004  
  321.00  9.5577E-004  
  321.50  9.4615E-004  
  322.00  7.4255E-004  
  322.50  7.5182E-004  
  323.00  8.2240E-004  
  323.50  6.2606E-004  
  324.00  3.8079E-004  
  324.50  5.4085E-005  
  325.00  0.0000E+000  
  325.50  0.0000E+000  
  326.00  0.0000E+000  
  326.50  0.0000E+000  
  327.00  0.0000E+000  
  327.50  5.4051E-005  
  328.00  3.3416E-004  
  328.50  5.7365E-004  
  329.00  5.9605E-004  
  329.50  2.5230E-004  
  330.00  0.0000E+000  
  330.50  0.0000E+000  
  331.00  0.0000E+000  
  331.50  1.5954E-004  
  332.00  5.7043E-004  
  332.50  8.6847E-004  
  333.00  1.0955E-003  
  333.50  1.0364E-003  
  334.00  9.6139E-004  
  334.50  7.9109E-004  
  335.00  4.9288E-004  
  335.50  1.9806E-004  
  336.00  2.3675E-004  
  336.50  5.7961E-005  
  337.00  1.9698E-005  
  337.50  4.3000E-007  
  338.00  8.8097E-005  
  338.50  4.8313E-004  
  339.00  7.6914E-004  
  339.50  7.8591E-004  
  340.00  4.7968E-004  
  340.50  2.5629E-004  
  341.00  2.5285E-004  
  341.50  4.5681E-004  
  342.00  6.0755E-004  
  342.50  6.5017E-004  
  343.00  5.5521E-004  
  343.50  4.6618E-004  
  344.00  6.5373E-004  
  344.50  9.3131E-004  
  345.00  1.0020E-003  
  345.50  6.2486E-004  
  346.00  1.6948E-004  
  346.50  2.5213E-006  
  347.00  1.3231E-004  
  347.50  4.7051E-004  
  348.00  3.2401E-004  
  348.50  2.5510E-004  
  349.00  7.1186E-005  
  349.50  0.0000E+000  
  350.00  8.4240E-005  
  350.50  3.6823E-004  
  351.00  8.4286E-004  
  351.50  8.9657E-004  
  352.00  6.1852E-004  
  352.50  4.3424E-004  
  353.00  1.5372E-004  
  353.50  2.9815E-004  
  354.00  4.0701E-004  
  354.50  4.1536E-004  
  355.00  5.0893E-004  
  355.50  6.8067E-004  
  356.00  6.8966E-004  
  356.50  8.2102E-004  
  357.00  7.1751E-004  
  357.50  5.4184E-004  
  358.00  5.8407E-004  
  358.50  5.2209E-004  
  359.00  7.2715E-004  
  359.50  8.0814E-004  
  360.00  7.2270E-004  
  360.50  3.8855E-004  
  361.00  2.8664E-005  
  361.50  0.0000E+000  
  362.00  0.0000E+000  
  362.50  0.0000E+000  
  363.00  8.7780E-005  
  363.50  3.4044E-004  
  364.00  8.1677E-004  
  364.50  1.0732E-003  
  365.00  1.1234E-003  
  365.50  8.8001E-004  
  366.00  6.0872E-004  
  366.50  4.5050E-004  
  367.00  4.1982E-004  
  367.50  2.6124E-004  
  368.00  3.9586E-005  
  368.50  0.0000E+000  
  369.00  1.4862E-005  
  369.50  3.0870E-004  
  370.00  5.8766E-004  
  370.50  8.5003E-004  
  371.00  8.4679E-004  
  371.50  6.8358E-004  
  372.00  6.7582E-004  
  372.50  5.9772E-004  
  373.00  7.0982E-004  
  373.50  8.0118E-004  
  374.00  8.2421E-004  
  374.50  9.4517E-004  
  375.00  7.9744E-004  
  375.50  7.2049E-004  
  376.00  4.7804E-004  
  376.50  1.7890E-004  
  377.00  1.0643E-004  
  377.50  1.3936E-004  
  378.00  4.9242E-004  
  378.50  8.9827E-004  
  379.00  1.1496E-003  
  379.50  1.2140E-003  
  380.00  9.8356E-004  
  380.50  7.8169E-004  
  381.00  6.6420E-004  
  381.50  4.4693E-004  
  382.00  1.3939E-004  
  382.50  9.8222E-005  
  383.00  1.5945E-004  
  383.50  4.3179E-004  
  384.00  6.7089E-004  
  384.50  4.3956E-004  
  385.00  2.2810E-004  
  385.50  1.2803E-004  
  386.00  8.7825E-005  
  386.50  2.9599E-004  
  387.00  5.4981E-004  
  387.50  7.8956E-004  
  388.00  8.9685E-004  
  388.50  1.1605E-003  
  389.00  1.0655E-003  
  389.50  1.1950E-003  
  390.00  1.2598E-003  
  390.50  9.4456E-004  
  391.00  8.0345E-004  
  391.50  5.0435E-004  
  392.00  3.5291E-004  
  392.50  5.8854E-004  
  393.00  7.8225E-004  
  393.50  9.0995E-004  
  394.00  8.4235E-004  
  394.50  5.2012E-004  
  395.00  3.9976E-004  
  395.50  4.0253E-004  
  396.00  4.5846E-004  
  396.50  6.9714E-004  
  397.00  6.3767E-004  
  397.50  4.5414E-004  
  398.00  2.5119E-004  
  398.50  4.6201E-005  
  399.00  2.1586E-004  
  399.50  1.3890E-004  
  400.00  6.6042E-005  
  400.50  7.1885E-005  
  401.00  1.0846E-004  
  401.50  3.9802E-004  
  402.00  3.3267E-004  
  402.50  2.5825E-004  
  403.00  2.0973E-004  
  403.50  3.3888E-004  
  404.00  5.6816E-004  
  404.50  6.5921E-004  
  405.00  7.3804E-004  
  405.50  7.0787E-004  
  406.00  7.5650E-004  
  406.50  7.1505E-004  
  407.00  4.9145E-004  
  407.50  3.7306E-004  
  408.00  4.0834E-004  
  408.50  5.2634E-004  
  409.00  4.4842E-004  
  409.50  4.2445E-004  
  410.00  3.7819E-004  
  410.50  4.5371E-004  
  411.00  4.3961E-004  
  411.50  2.2222E-004  
  412.00  4.1013E-005  
  412.50  1.1528E-004  
  413.00  5.9659E-004  
  413.50  9.0821E-004  
  414.00  1.1560E-003  
  414.50  8.9715E-004  
  415.00  6.9770E-004  
  415.50  8.6602E-004  
  416.00  1.0107E-003  
  416.50  1.0572E-003  
  417.00  1.1436E-003  
  417.50  9.9526E-004  
  418.00  9.1221E-004  
  418.50  7.8166E-004  
  419.00  4.7841E-004  
  419.50  3.9133E-004  
  420.00  4.5167E-004  
  420.50  6.7398E-004  
  421.00  7.9957E-004  
  421.50  8.2863E-004  
  422.00  8.6311E-004  
  422.50  8.4138E-004  
  423.00  9.7559E-004  
  423.50  1.1602E-003  
  424.00  1.2817E-003  
  424.50  1.1888E-003  
  425.00  9.5641E-004  
  425.50  7.3376E-004  
  426.00  7.1017E-004  
  426.50  7.2092E-004  
  427.00  6.1786E-004  
  427.50  6.3801E-004  
  428.00  5.5095E-004  
  428.50  7.8203E-004  
  429.00  9.7228E-004  
  429.50  1.0040E-003  
  430.00  9.0487E-004  
  430.50  5.2970E-004  
  431.00  4.1152E-004  
  431.50  3.6036E-004  
  432.00  6.4591E-004  
  432.50  8.1218E-004  
  433.00  8.4969E-004  
  433.50  8.6781E-004  
  434.00  9.5700E-004  
  434.50  9.4789E-004  
  435.00  1.0442E-003  
  435.50  9.1363E-004  
  436.00  8.8888E-004  
  436.50  7.6798E-004  
  437.00  7.5262E-004  
  437.50  7.2355E-004  
  438.00  5.3516E-004  
  438.50  5.5298E-004  
  439.00  5.0844E-004  
  439.50  5.2892E-004  
  440.00  7.2474E-004  
  440.50  6.7425E-004  
  441.00  7.2285E-004  
  441.50  8.6666E-004  
  442.00  9.2774E-004  
  442.50  1.1207E-003  
  443.00  1.0988E-003  
  443.50  9.5784E-004  
  444.00  8.2750E-004  
  444.50  8.9858E-004  
  445.00  9.5561E-004  
  445.50  1.0481E-003  
  446.00  1.1681E-003  
  446.50  1.1356E-003  
  447.00  1.2475E-003  
  447.50  1.1144E-003  
  448.00  9.0023E-004  
  448.50  6.5856E-004  
  449.00  6.2627E-004  
  449.50  6.7601E-004  
  450.00  6.9168E-004  
  450.50  6.9507E-004  
  451.00  6.9177E-004  
  451.50  6.3765E-004  
  452.00  7.0270E-004  
  452.50  6.4462E-004  
  453.00  8.3910E-004  
  453.50  1.1014E-003  
  454.00  9.2709E-004  
  454.50  7.6589E-004  
  455.00  5.6685E-004  
  455.50  5.1911E-004  
  456.00  8.1657E-004  
  456.50  9.9656E-004  
  457.00  1.1571E-003  
  457.50  1.2244E-003  
  458.00  1.0801E-003  
  458.50  1.0497E-003  
  459.00  8.3754E-004  
  459.50  6.8042E-004  
  460.00  4.5917E-004  
  460.50  3.6472E-004  
  461.00  5.3282E-004  
  461.50  7.0464E-004  
  462.00  7.8800E-004  
  462.50  7.1485E-004  
  463.00  5.6682E-004  
  463.50  6.6525E-004  
  464.00  7.6950E-004  
  464.50  1.0307E-003  
  465.00  1.1892E-003  
  465.50  1.1581E-003  
  466.00  1.1180E-003  
  466.50  1.1315E-003  
  467.00  9.6808E-004  
  467.50  8.5693E-004  
  468.00  8.6209E-004  
  468.50  9.5000E-004  
  469.00  9.2424E-004  
  469.50  7.0852E-004  
  470.00  7.4370E-004  
  470.50  8.3752E-004  
  471.00  1.2082E-003  
  471.50  1.3053E-003  
  472.00  1.1610E-003  
  472.50  9.6555E-004  
  473.00  7.0818E-004  
  473.50  6.7391E-004  
  474.00  7.8813E-004  
  474.50  7.4869E-004  
  475.00  7.8345E-004  
  475.50  6.5669E-004  
  476.00  6.1273E-004  
  476.50  6.9106E-004  
  477.00  7.2892E-004  
  477.50  8.2511E-004  
  478.00  8.8179E-004  
  478.50  8.4830E-004  
  479.00  9.0246E-004  
  479.50  8.6199E-004  
  480.00  9.3021E-004  
  480.50  8.7615E-004  
  481.00  7.7766E-004  
  481.50  7.6453E-004  
  482.00  6.3163E-004  
  482.50  4.7442E-004  
  483.00  2.9466E-004  
  483.50  2.4370E-004  
  484.00  4.0033E-004  
  484.50  5.0990E-004  
  485.00  6.5794E-004  
  485.50  6.2487E-004  
  486.00  5.7982E-004  
  486.50  4.0568E-004  
  487.00  2.5364E-004  
  487.50  1.9242E-004  
  488.00  1.8531E-004  
  488.50  1.8433E-004  
  489.00  3.1489E-004  
  489.50  4.2163E-004  
  490.00  5.5645E-004  
  490.50  5.1117E-004  
  491.00  3.9958E-004  
  491.50  2.3004E-004  
  492.00  2.4411E-004  
  492.50  3.9288E-004  
  493.00  5.3479E-004  
  493.50  4.6331E-004  
  494.00  3.5422E-004  
  494.50  2.3942E-004  
  495.00  2.3078E-004  
  495.50  2.5715E-004  
  496.00  3.0657E-004  
  496.50  3.7661E-004  
  497.00  3.9786E-004  
  497.50  4.0129E-004  
  498.00  3.5184E-004  
  498.50  3.7110E-004  
  499.00  3.9755E-004  
  499.50  3.9244E-004  
  500.00  3.9088E-004  
  500.50  3.9188E-004  
  501.00  4.5177E-004  
  501.50  4.0397E-004  
  502.00  4.4096E-004  
  502.50  4.0243E-004  
  503.00  4.4093E-004  
  503.50  4.1630E-004  
  504.00  3.4529E-004  
  504.50  3.9347E-004  
  505.00  3.1138E-004  
  505.50  2.3667E-004  
  506.00  1.8323E-004  
  506.50  1.2108E-004  
  507.00  1.4467E-004  
  507.50  4.8688E-005  
  508.00  0.0000E+000  
  508.50  0.0000E+000  
  509.00  1.1885E-004  
  509.50  2.6414E-004  
  510.00  2.9147E-004  
  510.50  3.3664E-004  
  511.00  3.3652E-004  
  511.50  3.1650E-004  
  512.00  2.1635E-004  
  512.50  2.1498E-004  
  513.00  2.8294E-004  
  513.50  3.6182E-004  
  514.00  2.8570E-004  
  514.50  2.8171E-004  
  515.00  2.1575E-004  
  515.50  2.8796E-004  
  516.00  3.1222E-004  
  516.50  3.3003E-004  
  517.00  4.6032E-004  
  517.50  6.5762E-004  
  518.00  7.9821E-004  
  518.50  7.1637E-004  
  519.00  4.8130E-004  
  519.50  2.2876E-004  
  520.00  1.5922E-004  
  520.50  1.6804E-004  
  521.00  1.9014E-004  
  521.50  2.6115E-004  
  522.00  2.8290E-004  
  522.50  3.3385E-004  
  523.00  2.5185E-004  
  523.50  2.4254E-004  
  524.00  2.8372E-004  
  524.50  2.7379E-004  
  525.00  2.3321E-004  
  525.50  1.4713E-004  
  526.00  7.5657E-005  
  526.50  9.7537E-005  
  527.00  3.4241E-005  
  527.50  5.8269E-005  
  528.00  1.0554E-004  
  528.50  3.0337E-004  
  529.00  4.5901E-004  
  529.50  4.6333E-004  
  530.00  4.6067E-004  
  530.50  3.8482E-004  
  531.00  4.4351E-004  
  531.50  4.3614E-004  
  532.00  4.5034E-004  
  532.50  3.5693E-004  
  533.00  3.0911E-004  
  533.50  2.9122E-004  
  534.00  3.1582E-004  
  534.50  3.1841E-004  
  535.00  2.8709E-004  
  535.50  2.8091E-004  
  536.00  3.2861E-004  
  536.50  3.9121E-004  
  537.00  3.2311E-004  
  537.50  2.2620E-004  
  538.00  1.4036E-004  
  538.50  1.5282E-004  
  539.00  3.0914E-004  
  539.50  3.9132E-004  
  540.00  3.7055E-004  
  540.50  3.2604E-004  
  541.00  2.3802E-004  
  541.50  3.3809E-004  
  542.00  3.7407E-004  
  542.50  4.3599E-004  
  543.00  4.5742E-004  
  543.50  4.8020E-004  
  544.00  5.5436E-004  
  544.50  6.0993E-004  
  545.00  5.6438E-004  
  545.50  4.0441E-004  
  546.00  2.8628E-004  
  546.50  1.8149E-004  
  547.00  1.9827E-004  
  547.50  2.7538E-004  
  548.00  4.8448E-004  
  548.50  7.0927E-004  
  549.00  7.4658E-004  
  549.50  7.6483E-004  
  550.00  6.5644E-004  
  550.50  5.2898E-004  
  551.00  4.3877E-004  
  551.50  4.1126E-004  
  552.00  3.7567E-004  
  552.50  3.6391E-004  
  553.00  3.7874E-004  
  553.50  4.0847E-004  
  554.00  4.8229E-004  
  554.50  4.3323E-004  
  555.00  3.4157E-004  
  555.50  2.8387E-004  
  556.00  2.3003E-004  
  556.50  3.1842E-004  
  557.00  4.1808E-004  
  557.50  6.0579E-004  
  558.00  7.7729E-004  
  558.50  8.7545E-004  
  559.00  8.0674E-004  
  559.50  7.1244E-004  
  560.00  6.6674E-004  
  560.50  6.2375E-004  
  561.00  5.3135E-004  
  561.50  4.5130E-004  
  562.00  5.0422E-004  
  562.50  6.4785E-004  
  563.00  7.0175E-004  
  563.50  7.0418E-004  
  564.00  6.8430E-004  
  564.50  8.1301E-004  
  565.00  8.6920E-004  
  565.50  8.7129E-004  
  566.00  8.4420E-004  
  566.50  8.5207E-004  
  567.00  8.5032E-004  
  567.50  7.5833E-004  
  568.00  6.8655E-004  
  568.50  6.1930E-004  
  569.00  6.3823E-004  
  569.50  6.8667E-004  
  570.00  8.2513E-004  
  570.50  8.9932E-004  
  571.00  8.4848E-004  
  571.50  8.3024E-004  
  572.00  8.4712E-004  
  572.50  7.9007E-004  
  573.00  8.4329E-004  
  573.50  7.3449E-004  
  574.00  7.0656E-004  
  574.50  6.6181E-004  
  575.00  7.5901E-004  
  575.50  8.7396E-004  
  576.00  8.9124E-004  
  576.50  8.8204E-004  
  577.00  9.9912E-004  
  577.50  1.0655E-003  
  578.00  1.0767E-003  
  578.50  1.1119E-003  
  579.00  1.1366E-003  
  579.50  1.1899E-003  
  580.00  1.1034E-003  
  580.50  9.5010E-004  
  581.00  9.3429E-004  
  581.50  1.0117E-003  
  582.00  1.3006E-003  
  582.50  1.3808E-003  
  583.00  1.3059E-003  
  583.50  1.2415E-003  
  584.00  1.3752E-003  
  584.50  1.4581E-003  
  585.00  1.5112E-003  
  585.50  1.4629E-003  
  586.00  1.5127E-003  
  586.50  1.5666E-003  
  587.00  1.6220E-003  
  587.50  1.6598E-003  
  588.00  1.7347E-003  
  588.50  1.8137E-003  
  589.00  2.0337E-003  
  589.50  2.1362E-003  
  590.00  2.2827E-003  
  590.50  2.3761E-003  
  591.00  2.4921E-003  
  591.50  2.6206E-003  
  592.00  2.7388E-003  
  592.50  2.8741E-003  
  593.00  3.0092E-003  
  593.50  3.0397E-003  
  594.00  3.1902E-003  
  594.50  3.4762E-003  
  595.00  3.8756E-003  
  595.50  4.2695E-003  
  596.00  4.4734E-003  
  596.50  4.5323E-003  
  597.00  4.6182E-003  
  597.50  4.8036E-003  
  598.00  5.0200E-003  
  598.50  5.2338E-003  
  599.00  5.5135E-003  
  599.50  5.9647E-003  
  600.00  6.3361E-003  
  600.50  6.5846E-003  
  601.00  6.8422E-003  
  601.50  7.1019E-003  
  602.00  7.4273E-003  
  602.50  7.8503E-003  
  603.00  8.3441E-003  
  603.50  8.9835E-003  
  604.00  9.4819E-003  
  604.50  9.8986E-003  
  605.00  1.0266E-002  
  605.50  1.0575E-002  
  606.00  1.0918E-002  
  606.50  1.1502E-002  
  607.00  1.2000E-002  
  607.50  1.2797E-002  
  608.00  1.3255E-002  
  608.50  1.3607E-002  
  609.00  1.3910E-002  
  609.50  1.4416E-002  
  610.00  1.5056E-002  
  610.50  1.5613E-002  
  611.00  1.6227E-002  
  611.50  1.6776E-002  
  612.00  1.7407E-002  
  612.50  1.7904E-002  
  613.00  1.8529E-002  
  613.50  1.9353E-002  
  614.00  2.0058E-002  
  614.50  2.0793E-002  
  615.00  2.1452E-002  
  615.50  2.2050E-002  
  616.00  2.2550E-002  
  616.50  2.3166E-002  
  617.00  2.3710E-002  
  617.50  2.4504E-002  
  618.00  2.5151E-002  
  618.50  2.5797E-002  
  619.00  2.6332E-002  
  619.50  2.6662E-002  
  620.00  2.7184E-002  
  620.50  2.7631E-002  
  621.00  2.8017E-002  
  621.50  2.8432E-002  
  622.00  2.8908E-002  
  622.50  2.9777E-002  
  623.00  3.0482E-002  
  623.50  3.1262E-002  
  624.00  3.2044E-002  
  624.50  3.2595E-002  
  625.00  3.3096E-002  
  625.50  3.3674E-002  
  626.00  3.3998E-002  
  626.50  3.4421E-002  
  627.00  3.4402E-002  
  627.50  3.4884E-002  
  628.00  3.5449E-002  
  628.50  3.6174E-002  
  629.00  3.6641E-002  
  629.50  3.7197E-002  
  630.00  3.7674E-002  
  630.50  3.8223E-002  
  631.00  3.8710E-002  
  631.50  3.9080E-002  
  632.00  3.9567E-002  
  632.50  3.9774E-002  
  633.00  4.0074E-002  
  633.50  4.0631E-002  
  634.00  4.1248E-002  
  634.50  4.1695E-002  
  635.00  4.1823E-002  
  635.50  4.1849E-002  
  636.00  4.2056E-002  
  636.50  4.2514E-002  
  637.00  4.2991E-002  
  637.50  4.3426E-002  
  638.00  4.3720E-002  
  638.50  4.4199E-002  
  639.00  4.4725E-002  
  639.50  4.4740E-002  
  640.00  4.4977E-002  
  640.50  4.5212E-002  
  641.00  4.5681E-002  
  641.50  4.5864E-002  
  642.00  4.6138E-002  
  642.50  4.6413E-002  
  643.00  4.6820E-002  
  643.50  4.7086E-002  
  644.00  4.7598E-002  
  644.50  4.8250E-002  
  645.00  4.8917E-002  
  645.50  4.9213E-002  
  646.00  4.8915E-002  
  646.50  4.8855E-002  
  647.00  4.9123E-002  
  647.50  4.9844E-002  
  648.00  5.0320E-002  
  648.50  5.0216E-002  
  649.00  5.0027E-002  
  649.50  4.9832E-002  
  650.00  5.0099E-002  
  650.50  5.0594E-002  
  651.00  5.0847E-002  
  651.50  5.1222E-002  
  652.00  5.1292E-002  
  652.50  5.1391E-002  
  653.00  5.1405E-002  
  653.50  5.1616E-002  
  654.00  5.2295E-002  
  654.50  5.2874E-002  
  655.00  5.2838E-002  
  655.50  5.2753E-002  
  656.00  5.2868E-002  
  656.50  5.3413E-002  
  657.00  5.3633E-002  
  657.50  5.3641E-002  
  658.00  5.3607E-002  
  658.50  5.3753E-002  
  659.00  5.3977E-002  
  659.50  5.4338E-002  
  660.00  5.4652E-002  
  660.50  5.4978E-002  
  661.00  5.5098E-002  
  661.50  5.5252E-002  
  662.00  5.5495E-002  
  662.50  5.5693E-002  
  663.00  5.5461E-002  
  663.50  5.5450E-002  
  664.00  5.5472E-002  
  664.50  5.5476E-002  
  665.00  5.5344E-002  
  665.50  5.5566E-002  
  666.00  5.5971E-002  
  666.50  5.6209E-002  
  667.00  5.6370E-002  
  667.50  5.6722E-002  
  668.00  5.6863E-002  
  668.50  5.6779E-002  
  669.00  5.6670E-002  
  669.50  5.6673E-002  
  670.00  5.6411E-002  
  670.50  5.6424E-002  
  671.00  5.6913E-002  
  671.50  5.7932E-002  
  672.00  5.8267E-002  
  672.50  5.8300E-002  
  673.00  5.8310E-002  
  673.50  5.8396E-002  
  674.00  5.8620E-002  
  674.50  5.8502E-002  
  675.00  5.8563E-002  
  675.50  5.8494E-002  
  676.00  5.8824E-002  
  676.50  5.8976E-002  
  677.00  5.9074E-002  
  677.50  5.9300E-002  
  678.00  5.9432E-002  
  678.50  5.9694E-002  
  679.00  5.9691E-002  
  679.50  6.0020E-002  
  680.00  6.0054E-002  
  680.50  5.9678E-002  
  681.00  5.9180E-002  
  681.50  5.8958E-002  
  682.00  5.9541E-002  
  682.50  6.0211E-002  
  683.00  6.0678E-002  
  683.50  6.0592E-002  
  684.00  6.0668E-002  
  684.50  6.0784E-002  
  685.00  6.1024E-002  
  685.50  6.1280E-002  
  686.00  6.1444E-002  
  686.50  6.1565E-002  
  687.00  6.1369E-002  
  687.50  6.1783E-002  
  688.00  6.2244E-002  
  688.50  6.2552E-002  
  689.00  6.2527E-002  
  689.50  6.2397E-002  
  690.00  6.2503E-002  
  690.50  6.2580E-002  
  691.00  6.3014E-002  
  691.50  6.3342E-002  
  692.00  6.3315E-002  
  692.50  6.3333E-002  
  693.00  6.3449E-002  
  693.50  6.3996E-002  
  694.00  6.4597E-002  
  694.50  6.4928E-002  
  695.00  6.4750E-002  
  695.50  6.4556E-002  
  696.00  6.4904E-002  
  696.50  6.5206E-002  
  697.00  6.5242E-002  
  697.50  6.5241E-002  
  698.00  6.5696E-002  
  698.50  6.6389E-002  
  699.00  6.6326E-002  
  699.50  6.6246E-002  
  700.00  6.6357E-002  
  700.50  6.6756E-002  
  701.00  6.6885E-002  
  701.50  6.6444E-002  
  702.00  6.6878E-002  
  702.50  6.7592E-002  
  703.00  6.8195E-002  
  703.50  6.7953E-002  
  704.00  6.7961E-002  
  704.50  6.8205E-002  
  705.00  6.8611E-002  
  705.50  6.9104E-002  
  706.00  6.9525E-002  
  706.50  6.9719E-002  
  707.00  6.9235E-002  
  707.50  6.8971E-002  
  708.00  6.9187E-002  
  708.50  7.0052E-002  
  709.00  7.0981E-002  
  709.50  7.1693E-002  
  710.00  7.1920E-002  
  710.50  7.1702E-002  
  711.00  7.0980E-002  
  711.50  7.0747E-002  
  712.00  7.0614E-002  
  712.50  7.1156E-002  
  713.00  7.1964E-002  
  713.50  7.2737E-002  
  714.00  7.3162E-002  
  714.50  7.3378E-002  
  715.00  7.3552E-002  
  715.50  7.2752E-002  
  716.00  7.2220E-002  
  716.50  7.1972E-002  
  717.00  7.2431E-002  
  717.50  7.2664E-002  
  718.00  7.3392E-002  
  718.50  7.3711E-002  
  719.00  7.3983E-002  
  719.50  7.4508E-002  
  720.00  7.5081E-002  
  720.50  7.5618E-002  
  721.00  7.5721E-002  
  721.50  7.6268E-002  
  722.00  7.6660E-002  
  722.50  7.7258E-002  
  723.00  7.7493E-002  
  723.50  7.7490E-002  
  724.00  7.7936E-002  
  724.50  7.8172E-002  
  725.00  7.8442E-002  
  725.50  7.8119E-002  
  726.00  7.7902E-002  
  726.50  7.7716E-002  
  727.00  7.7849E-002  
  727.50  7.8403E-002  
  728.00  7.9150E-002  
  728.50  8.0343E-002  
  729.00  8.1012E-002  
  729.50  8.0998E-002  
  730.00  8.0305E-002  
  730.50  8.0082E-002  
  731.00  8.0055E-002  
  731.50  8.0606E-002  
  732.00  8.1161E-002  
  732.50  8.2156E-002  
  733.00  8.2831E-002  
  733.50  8.2934E-002  
  734.00  8.3152E-002  
  734.50  8.3767E-002  
  735.00  8.3998E-002  
  735.50  8.3536E-002  
  736.00  8.2711E-002  
  736.50  8.2733E-002  
  737.00  8.3251E-002  
  737.50  8.4006E-002  
  738.00  8.3953E-002  
  738.50  8.3963E-002  
  739.00  8.4334E-002  
  739.50  8.4834E-002  
  740.00  8.4982E-002  
  740.50  8.4983E-002  
  741.00  8.5475E-002  
  741.50  8.6529E-002  
  742.00  8.6865E-002  
  742.50  8.6633E-002  
  743.00  8.6292E-002  
  743.50  8.6513E-002  
  744.00  8.6972E-002  
  744.50  8.6786E-002  
  745.00  8.7134E-002  
  745.50  8.7230E-002  
  746.00  8.7560E-002  
  746.50  8.7136E-002  
  747.00  8.7211E-002  
  747.50  8.7448E-002  
  748.00  8.8558E-002  
  748.50  8.9447E-002  
  749.00  9.0516E-002  
  749.50  9.0755E-002  
  750.00  9.0630E-002  
  750.50  9.0178E-002  
  751.00  8.9749E-002  
  751.50  8.9304E-002  
  752.00  8.9454E-002  
  752.50  8.9631E-002  
  753.00  9.0093E-002  
  753.50  9.1057E-002  
  754.00  9.2267E-002  
  754.50  9.3182E-002  
  755.00  9.2991E-002  
  755.50  9.3115E-002  
  756.00  9.3052E-002  
  756.50  9.3085E-002  
  757.00  9.2388E-002  
  757.50  9.2599E-002  
  758.00  9.3224E-002  
  758.50  9.4349E-002  
  759.00  9.4649E-002  
  759.50  9.4462E-002  
  760.00  9.4223E-002  
  760.50  9.4373E-002  
  761.00  9.4572E-002  
  761.50  9.4910E-002  
  762.00  9.5191E-002  
  762.50  9.5134E-002  
  763.00  9.5211E-002  
  763.50  9.5264E-002  
  764.00  9.5775E-002  
  764.50  9.5508E-002  
  765.00  9.5734E-002  
  765.50  9.6248E-002  
  766.00  9.7138E-002  
  766.50  9.7725E-002  
  767.00  9.8049E-002  
  767.50  9.7700E-002  
  768.00  9.6683E-002  
  768.50  9.6449E-002  
  769.00  9.7351E-002  
  769.50  9.7717E-002  
  770.00  9.7586E-002  
  770.50  9.6601E-002  
  771.00  9.6612E-002  
  771.50  9.6945E-002  
  772.00  9.7906E-002  
  772.50  9.8939E-002  
  773.00  9.9914E-002  
  773.50  1.0022E-001  
  774.00  9.9592E-002  
  774.50  1.0004E-001  
  775.00  1.0007E-001  
  775.50  9.9769E-002  
  776.00  9.9007E-002  
  776.50  9.8653E-002  
  777.00  9.9201E-002  
  777.50  9.8919E-002  
  778.00  9.8596E-002  
  778.50  9.8826E-002  
  779.00  1.0017E-001  
  779.50  1.0038E-001  
  780.00  1.0074E-001  
  780.50  1.0082E-001  
  781.00  1.0095E-001  
  781.50  1.0121E-001  
  782.00  1.0167E-001  
  782.50  1.0134E-001  
  783.00  1.0146E-001  
  783.50  1.0279E-001  
  784.00  1.0298E-001  
  784.50  1.0307E-001  
  785.00  1.0374E-001  
  785.50  1.0522E-001  
  786.00  1.0589E-001  
  786.50  1.0578E-001  
  787.00  1.0464E-001  
  787.50  1.0433E-001  
  788.00  1.0427E-001  
  788.50  1.0520E-001  
  789.00  1.0522E-001  
  789.50  1.0486E-001  
  790.00  1.0453E-001  
  790.50  1.0544E-001  
  791.00  1.0600E-001  
  791.50  1.0657E-001  
  792.00  1.0683E-001  
  792.50  1.0654E-001  
  793.00  1.0579E-001  
  793.50  1.0447E-001  
  794.00  1.0467E-001  
  794.50  1.0594E-001  
  795.00  1.0697E-001  
  795.50  1.0729E-001  
  796.00  1.0715E-001  
  796.50  1.0661E-001  
  797.00  1.0606E-001  
  797.50  1.0683E-001  
  798.00  1.0834E-001  
  798.50  1.0945E-001  
  799.00  1.0848E-001  
  799.50  1.0700E-001  
  800.00  1.0595E-001  
  800.50  1.0634E-001  
  801.00  1.0674E-001  
  801.50  1.0705E-001  
  802.00  1.0770E-001  
  802.50  1.0896E-001  
  803.00  1.0884E-001  
  803.50  1.0845E-001  
  804.00  1.0862E-001  
  804.50  1.1005E-001  
  805.00  1.1016E-001  
  805.50  1.1013E-001  
  806.00  1.0975E-001  
  806.50  1.1044E-001  
  807.00  1.1002E-001  
  807.50  1.1062E-001  
  808.00  1.1009E-001  
  808.50  1.0978E-001  
  809.00  1.1028E-001  
  809.50  1.1133E-001  
  810.00  1.1083E-001  
  810.50  1.1099E-001  
  811.00  1.1218E-001  
  811.50  1.1232E-001  
  812.00  1.1175E-001  
  812.50  1.1117E-001  
  813.00  1.1166E-001  
  813.50  1.1239E-001  
  814.00  1.1216E-001  
  814.50  1.1153E-001  
  815.00  1.1206E-001  
  815.50  1.1361E-001  
  816.00  1.1557E-001  
  816.50  1.1513E-001  
  817.00  1.1297E-001  
  817.50  1.1127E-001  
  818.00  1.1031E-001  
  818.50  1.1157E-001  
  819.00  1.1371E-001  
  819.50  1.1273E-001  
  820.00  1.1214E-001  
  820.50  1.1258E-001  
  821.00  1.1392E-001  
  821.50  1.1273E-001  
  822.00  1.1343E-001  
  822.50  1.1290E-001  
  823.00  1.1239E-001  
  823.50  1.1260E-001  
  824.00  1.1377E-001  
  824.50  1.1522E-001  
  825.00  1.1617E-001  
  825.50  1.1556E-001  
  826.00  1.1502E-001  
  826.50  1.1431E-001  
  827.00  1.1374E-001  
  827.50  1.1335E-001  
  828.00  1.1514E-001  
  828.50  1.1651E-001  
  829.00  1.1678E-001  
  829.50  1.1584E-001  
  830.00  1.1580E-001  
  830.50  1.1671E-001  
  831.00  1.1737E-001  
  831.50  1.1728E-001  
  832.00  1.1779E-001  
  832.50  1.1869E-001  
  833.00  1.1784E-001  
  833.50  1.1624E-001  
  834.00  1.1596E-001  
  834.50  1.1763E-001  
  835.00  1.1625E-001  
  835.50  1.1676E-001  
  836.00  1.1815E-001  
  836.50  1.2011E-001  
  837.00  1.1927E-001  
  837.50  1.1824E-001  
  838.00  1.1737E-001  
  838.50  1.1958E-001  
  839.00  1.1970E-001  
  839.50  1.1873E-001  
  840.00  1.1787E-001  
  840.50  1.1865E-001  
  841.00  1.1736E-001  
  841.50  1.1785E-001  
  842.00  1.1697E-001  
  842.50  1.1613E-001  
  843.00  1.1675E-001  
  843.50  1.1930E-001  
  844.00  1.1935E-001  
  844.50  1.1925E-001  
  845.00  1.2054E-001  
  845.50  1.2060E-001  
  846.00  1.1926E-001  
  846.50  1.1895E-001  
  847.00  1.2045E-001  
  847.50  1.2135E-001  
  848.00  1.2110E-001  
  848.50  1.2097E-001  
  849.00  1.1972E-001  
  849.50  1.1889E-001  
  850.00  1.2120E-001  
  850.50  1.2041E-001  
  851.00  1.2163E-001  
  851.50  1.2148E-001  
  852.00  1.2144E-001  
  852.50  1.2143E-001  
  853.00  1.2287E-001  
  853.50  1.2443E-001  
  854.00  1.2444E-001  
  854.50  1.2107E-001  
  855.00  1.1817E-001  
  855.50  1.1783E-001  
  856.00  1.1994E-001  
  856.50  1.2198E-001  
  857.00  1.2451E-001  
  857.50  1.2570E-001  
  858.00  1.2306E-001  
  858.50  1.2376E-001  
  859.00  1.2465E-001  
  859.50  1.2384E-001  
  860.00  1.2527E-001  
  860.50  1.2645E-001  
  861.00  1.2449E-001  
  861.50  1.2197E-001  
  862.00  1.2341E-001  
  862.50  1.2465E-001  
  863.00  1.2460E-001  
  863.50  1.2257E-001  
  864.00  1.1986E-001  
  864.50  1.2290E-001  
  865.00  1.2634E-001  
  865.50  1.2590E-001  
  866.00  1.2442E-001  
  866.50  1.2101E-001  
  867.00  1.1980E-001  
  867.50  1.2165E-001  
  868.00  1.2559E-001  
  868.50  1.2610E-001  
  869.00  1.2532E-001  
  869.50  1.2412E-001  
  870.00  1.2530E-001  
  870.50  1.2853E-001  
  871.00  1.2897E-001  
  871.50  1.2675E-001  
  872.00  1.2707E-001  
  872.50  1.2946E-001  
  873.00  1.2971E-001  
  873.50  1.2724E-001  
  874.00  1.2446E-001  
  874.50  1.2492E-001  
  875.00  1.2744E-001  
  875.50  1.3019E-001  
  876.00  1.3114E-001  
  876.50  1.2942E-001  
  877.00  1.2645E-001  
  877.50  1.2677E-001  
  878.00  1.2774E-001  
  878.50  1.3001E-001  
  879.00  1.3077E-001  
  879.50  1.3098E-001  
  880.00  1.2758E-001  
  880.50  1.2764E-001  
  881.00  1.2996E-001  
  881.50  1.2874E-001  
  882.00  1.2693E-001  
  882.50  1.2867E-001  
  883.00  1.2805E-001  
  883.50  1.2598E-001  
  884.00  1.2413E-001  
  884.50  1.2629E-001  
  885.00  1.2705E-001  
  885.50  1.2976E-001  
  886.00  1.3062E-001  
  886.50  1.3007E-001  
  887.00  1.2979E-001  
  887.50  1.2720E-001  
  888.00  1.2886E-001  
  888.50  1.3086E-001  
  889.00  1.2811E-001  
  889.50  1.2554E-001  
  890.00  1.2809E-001  
  890.50  1.2897E-001  
  891.00  1.2693E-001  
  891.50  1.2667E-001  
  892.00  1.2669E-001  
  892.50  1.2592E-001  
  893.00  1.2708E-001  
  893.50  1.3156E-001  
  894.00  1.3083E-001  
  894.50  1.2507E-001  
  895.00  1.2617E-001  
  895.50  1.3024E-001  
  896.00  1.3005E-001  
  896.50  1.2600E-001  
  897.00  1.2724E-001  
  897.50  1.3301E-001  
  898.00  1.3289E-001  
  898.50  1.3107E-001  
  899.00  1.3445E-001  
  899.50  2.7282E-003  
