
# From lspdd.org
# 
# Name: LFC Globe Twister Domestique
# Indice spectral Valeur 
# MSI 0.63 
# SLI 0.73 
# IPI 0.70 
# Pourcentage de bleu 34.4 
# Caractéristique Valeur 
# CCT calculée (K) 4574 
# CCT du fabricant (K) 4100 
# Tension (V) 120 
# Puissance (W) 23.0 
# Efficacité lumineuse (Lum/W) 70.0 
#
# Image: '/app/system/img_1s/2754/medium_image1.JPG?1612236540'
# 

  273.00  0.0000E+000  
  273.50  0.0000E+000  
  274.00  0.0000E+000  
  274.50  0.0000E+000  
  275.00  0.0000E+000  
  275.50  0.0000E+000  
  276.00  0.0000E+000  
  276.50  0.0000E+000  
  277.00  0.0000E+000  
  277.50  0.0000E+000  
  278.00  0.0000E+000  
  278.50  0.0000E+000  
  279.00  0.0000E+000  
  279.50  0.0000E+000  
  280.00  0.0000E+000  
  280.50  0.0000E+000  
  281.00  0.0000E+000  
  281.50  0.0000E+000  
  282.00  0.0000E+000  
  282.50  0.0000E+000  
  283.00  0.0000E+000  
  283.50  0.0000E+000  
  284.00  0.0000E+000  
  284.50  0.0000E+000  
  285.00  0.0000E+000  
  285.50  0.0000E+000  
  286.00  0.0000E+000  
  286.50  0.0000E+000  
  287.00  0.0000E+000  
  287.50  0.0000E+000  
  288.00  0.0000E+000  
  288.50  0.0000E+000  
  289.00  0.0000E+000  
  289.50  0.0000E+000  
  290.00  0.0000E+000  
  290.50  0.0000E+000  
  291.00  0.0000E+000  
  291.50  0.0000E+000  
  292.00  0.0000E+000  
  292.50  0.0000E+000  
  293.00  0.0000E+000  
  293.50  0.0000E+000  
  294.00  0.0000E+000  
  294.50  0.0000E+000  
  295.00  0.0000E+000  
  295.50  0.0000E+000  
  296.00  0.0000E+000  
  296.50  0.0000E+000  
  297.00  0.0000E+000  
  297.50  0.0000E+000  
  298.00  0.0000E+000  
  298.50  0.0000E+000  
  299.00  0.0000E+000  
  299.50  0.0000E+000  
  300.00  4.7384E-006  
  300.50  4.2617E-006  
  301.00  0.0000E+000  
  301.50  0.0000E+000  
  302.00  0.0000E+000  
  302.50  1.4912E-004  
  303.00  4.0290E-004  
  303.50  4.3507E-004  
  304.00  2.8697E-004  
  304.50  9.8060E-005  
  305.00  0.0000E+000  
  305.50  0.0000E+000  
  306.00  5.3180E-005  
  306.50  3.2486E-004  
  307.00  5.0127E-004  
  307.50  4.2379E-004  
  308.00  2.9835E-004  
  308.50  2.8479E-004  
  309.00  3.3645E-004  
  309.50  2.0490E-004  
  310.00  2.0166E-006  
  310.50  0.0000E+000  
  311.00  0.0000E+000  
  311.50  0.0000E+000  
  312.00  4.9056E-005  
  312.50  3.5929E-004  
  313.00  4.2143E-004  
  313.50  3.0419E-004  
  314.00  4.1442E-004  
  314.50  5.9647E-004  
  315.00  7.7924E-004  
  315.50  6.3886E-004  
  316.00  4.5936E-004  
  316.50  1.4770E-004  
  317.00  0.0000E+000  
  317.50  0.0000E+000  
  318.00  0.0000E+000  
  318.50  0.0000E+000  
  319.00  0.0000E+000  
  319.50  0.0000E+000  
  320.00  0.0000E+000  
  320.50  0.0000E+000  
  321.00  0.0000E+000  
  321.50  0.0000E+000  
  322.00  0.0000E+000  
  322.50  5.2474E-005  
  323.00  6.0310E-005  
  323.50  2.1797E-004  
  324.00  4.2927E-004  
  324.50  4.2806E-004  
  325.00  5.4766E-004  
  325.50  6.6913E-004  
  326.00  9.0750E-004  
  326.50  1.0039E-003  
  327.00  8.5972E-004  
  327.50  5.4141E-004  
  328.00  1.9787E-004  
  328.50  3.7816E-005  
  329.00  1.9925E-005  
  329.50  5.5109E-005  
  330.00  1.1315E-004  
  330.50  4.1567E-004  
  331.00  7.1862E-004  
  331.50  7.5738E-004  
  332.00  9.6230E-004  
  332.50  9.3643E-004  
  333.00  6.2627E-004  
  333.50  5.5761E-004  
  334.00  4.3810E-004  
  334.50  3.9555E-004  
  335.00  3.6975E-004  
  335.50  1.6015E-004  
  336.00  0.0000E+000  
  336.50  9.4576E-006  
  337.00  1.7119E-004  
  337.50  4.1140E-004  
  338.00  5.8142E-004  
  338.50  8.1727E-004  
  339.00  1.0094E-003  
  339.50  1.1535E-003  
  340.00  1.0609E-003  
  340.50  8.9144E-004  
  341.00  5.9908E-004  
  341.50  2.9107E-004  
  342.00  1.2323E-004  
  342.50  0.0000E+000  
  343.00  0.0000E+000  
  343.50  1.7278E-004  
  344.00  4.5848E-004  
  344.50  6.1322E-004  
  345.00  5.5973E-004  
  345.50  4.6051E-004  
  346.00  4.5304E-004  
  346.50  5.6496E-004  
  347.00  7.0656E-004  
  347.50  8.3874E-004  
  348.00  9.8485E-004  
  348.50  1.0647E-003  
  349.00  9.4244E-004  
  349.50  6.9478E-004  
  350.00  4.9856E-004  
  350.50  6.7212E-004  
  351.00  8.1846E-004  
  351.50  9.6779E-004  
  352.00  8.1541E-004  
  352.50  5.5869E-004  
  353.00  4.5222E-004  
  353.50  5.1300E-004  
  354.00  8.5391E-004  
  354.50  1.0622E-003  
  355.00  1.2174E-003  
  355.50  1.0483E-003  
  356.00  1.2251E-003  
  356.50  9.9094E-004  
  357.00  7.2702E-004  
  357.50  6.0080E-004  
  358.00  2.9187E-004  
  358.50  4.5273E-004  
  359.00  7.3049E-004  
  359.50  7.8839E-004  
  360.00  9.8439E-004  
  360.50  9.1212E-004  
  361.00  1.0643E-003  
  361.50  1.2141E-003  
  362.00  1.2772E-003  
  362.50  1.9077E-003  
  363.00  3.7794E-003  
  363.50  8.3698E-003  
  364.00  1.5073E-002  
  364.50  2.1124E-002  
  365.00  2.3639E-002  
  365.50  2.1328E-002  
  366.00  1.5492E-002  
  366.50  9.5265E-003  
  367.00  5.2803E-003  
  367.50  3.0670E-003  
  368.00  2.0001E-003  
  368.50  1.5362E-003  
  369.00  1.3878E-003  
  369.50  1.0332E-003  
  370.00  8.6234E-004  
  370.50  7.1805E-004  
  371.00  8.5634E-004  
  371.50  1.1873E-003  
  372.00  1.2733E-003  
  372.50  1.2568E-003  
  373.00  1.0114E-003  
  373.50  7.1476E-004  
  374.00  7.4837E-004  
  374.50  6.4954E-004  
  375.00  6.6799E-004  
  375.50  9.4708E-004  
  376.00  1.1179E-003  
  376.50  1.3525E-003  
  377.00  1.2219E-003  
  377.50  8.7761E-004  
  378.00  6.6922E-004  
  378.50  7.7721E-004  
  379.00  1.1290E-003  
  379.50  1.4021E-003  
  380.00  1.3770E-003  
  380.50  1.1136E-003  
  381.00  9.5591E-004  
  381.50  9.9275E-004  
  382.00  1.1164E-003  
  382.50  1.2058E-003  
  383.00  1.2621E-003  
  383.50  1.4252E-003  
  384.00  1.6450E-003  
  384.50  1.5758E-003  
  385.00  1.3361E-003  
  385.50  9.0934E-004  
  386.00  7.0017E-004  
  386.50  7.9068E-004  
  387.00  9.5282E-004  
  387.50  1.0138E-003  
  388.00  9.9289E-004  
  388.50  1.0264E-003  
  389.00  1.0686E-003  
  389.50  1.3696E-003  
  390.00  1.2710E-003  
  390.50  9.9557E-004  
  391.00  7.7565E-004  
  391.50  5.4843E-004  
  392.00  7.1160E-004  
  392.50  8.9567E-004  
  393.00  1.1157E-003  
  393.50  1.3655E-003  
  394.00  1.5958E-003  
  394.50  1.7639E-003  
  395.00  1.8553E-003  
  395.50  1.7199E-003  
  396.00  1.4878E-003  
  396.50  1.5246E-003  
  397.00  1.5862E-003  
  397.50  1.9749E-003  
  398.00  2.1969E-003  
  398.50  2.1290E-003  
  399.00  2.2560E-003  
  399.50  2.5015E-003  
  400.00  2.7787E-003  
  400.50  2.9386E-003  
  401.00  2.8053E-003  
  401.50  2.6949E-003  
  402.00  3.2148E-003  
  402.50  7.3910E-003  
  403.00  2.2702E-002  
  403.50  4.6917E-002  
  404.00  6.9149E-002  
  404.50  7.5836E-002  
  405.00  6.3897E-002  
  405.50  4.0354E-002  
  406.00  2.1277E-002  
  406.50  1.2888E-002  
  407.00  1.1825E-002  
  407.50  1.2052E-002  
  408.00  1.0870E-002  
  408.50  8.5389E-003  
  409.00  6.3010E-003  
  409.50  5.2580E-003  
  410.00  4.8771E-003  
  410.50  4.6929E-003  
  411.00  4.6275E-003  
  411.50  4.6997E-003  
  412.00  4.9784E-003  
  412.50  5.3200E-003  
  413.00  5.5099E-003  
  413.50  5.5396E-003  
  414.00  5.7997E-003  
  414.50  6.1554E-003  
  415.00  6.4433E-003  
  415.50  6.6624E-003  
  416.00  6.6154E-003  
  416.50  6.6842E-003  
  417.00  6.9432E-003  
  417.50  7.1972E-003  
  418.00  7.3928E-003  
  418.50  7.6643E-003  
  419.00  7.9802E-003  
  419.50  8.4256E-003  
  420.00  8.8272E-003  
  420.50  8.8271E-003  
  421.00  8.7191E-003  
  421.50  8.7726E-003  
  422.00  9.1995E-003  
  422.50  1.0102E-002  
  423.00  1.0956E-002  
  423.50  1.1607E-002  
  424.00  1.1967E-002  
  424.50  1.2221E-002  
  425.00  1.2658E-002  
  425.50  1.3211E-002  
  426.00  1.3676E-002  
  426.50  1.4074E-002  
  427.00  1.4251E-002  
  427.50  1.4299E-002  
  428.00  1.4593E-002  
  428.50  1.5052E-002  
  429.00  1.5613E-002  
  429.50  1.6441E-002  
  430.00  1.7210E-002  
  430.50  1.7416E-002  
  431.00  1.7756E-002  
  431.50  1.8000E-002  
  432.00  1.8625E-002  
  432.50  1.9896E-002  
  433.00  2.1592E-002  
  433.50  2.9743E-002  
  434.00  5.8888E-002  
  434.50  1.2328E-001  
  435.00  1.9755E-001  
  435.50  2.3863E-001  
  436.00  2.1507E-001  
  436.50  1.5024E-001  
  437.00  8.3874E-002  
  437.50  4.4241E-002  
  438.00  2.9001E-002  
  438.50  2.4843E-002  
  439.00  2.3606E-002  
  439.50  2.3403E-002  
  440.00  2.3351E-002  
  440.50  2.3253E-002  
  441.00  2.3144E-002  
  441.50  2.3105E-002  
  442.00  2.3093E-002  
  442.50  2.3286E-002  
  443.00  2.3325E-002  
  443.50  2.3239E-002  
  444.00  2.3130E-002  
  444.50  2.3256E-002  
  445.00  2.3478E-002  
  445.50  2.3690E-002  
  446.00  2.3604E-002  
  446.50  2.3450E-002  
  447.00  2.3297E-002  
  447.50  2.3177E-002  
  448.00  2.2850E-002  
  448.50  2.2800E-002  
  449.00  2.3104E-002  
  449.50  2.3642E-002  
  450.00  2.4002E-002  
  450.50  2.3985E-002  
  451.00  2.4019E-002  
  451.50  2.3738E-002  
  452.00  2.3603E-002  
  452.50  2.3399E-002  
  453.00  2.3289E-002  
  453.50  2.3281E-002  
  454.00  2.3066E-002  
  454.50  2.2850E-002  
  455.00  2.2599E-002  
  455.50  2.2567E-002  
  456.00  2.2568E-002  
  456.50  2.2528E-002  
  457.00  2.2573E-002  
  457.50  2.2529E-002  
  458.00  2.2478E-002  
  458.50  2.2409E-002  
  459.00  2.2083E-002  
  459.50  2.1705E-002  
  460.00  2.1595E-002  
  460.50  2.1519E-002  
  461.00  2.1809E-002  
  461.50  2.2000E-002  
  462.00  2.1923E-002  
  462.50  2.1891E-002  
  463.00  2.1347E-002  
  463.50  2.0974E-002  
  464.00  2.0693E-002  
  464.50  2.0568E-002  
  465.00  2.0438E-002  
  465.50  2.0201E-002  
  466.00  1.9826E-002  
  466.50  1.9500E-002  
  467.00  1.9277E-002  
  467.50  1.9086E-002  
  468.00  1.9074E-002  
  468.50  1.8803E-002  
  469.00  1.8725E-002  
  469.50  1.8599E-002  
  470.00  1.8532E-002  
  470.50  1.8664E-002  
  471.00  1.8521E-002  
  471.50  1.8409E-002  
  472.00  1.8162E-002  
  472.50  1.7790E-002  
  473.00  1.7404E-002  
  473.50  1.7129E-002  
  474.00  1.6955E-002  
  474.50  1.6817E-002  
  475.00  1.6524E-002  
  475.50  1.5999E-002  
  476.00  1.5683E-002  
  476.50  1.5631E-002  
  477.00  1.5759E-002  
  477.50  1.5880E-002  
  478.00  1.5939E-002  
  478.50  1.5929E-002  
  479.00  1.6280E-002  
  479.50  1.6590E-002  
  480.00  1.6998E-002  
  480.50  1.7256E-002  
  481.00  1.7538E-002  
  481.50  1.8323E-002  
  482.00  1.9906E-002  
  482.50  2.2230E-002  
  483.00  2.4930E-002  
  483.50  2.7800E-002  
  484.00  3.0762E-002  
  484.50  3.3899E-002  
  485.00  3.7065E-002  
  485.50  3.9830E-002  
  486.00  4.1967E-002  
  486.50  4.3052E-002  
  487.00  4.3016E-002  
  487.50  4.1672E-002  
  488.00  3.9663E-002  
  488.50  3.7299E-002  
  489.00  3.5339E-002  
  489.50  3.3680E-002  
  490.00  3.2309E-002  
  490.50  3.1289E-002  
  491.00  3.0422E-002  
  491.50  2.9492E-002  
  492.00  2.8374E-002  
  492.50  2.7047E-002  
  493.00  2.5598E-002  
  493.50  2.4149E-002  
  494.00  2.2942E-002  
  494.50  2.2000E-002  
  495.00  2.1126E-002  
  495.50  2.0182E-002  
  496.00  1.9254E-002  
  496.50  1.8430E-002  
  497.00  1.7799E-002  
  497.50  1.7146E-002  
  498.00  1.6412E-002  
  498.50  1.5728E-002  
  499.00  1.4920E-002  
  499.50  1.4104E-002  
  500.00  1.3358E-002  
  500.50  1.2778E-002  
  501.00  1.2433E-002  
  501.50  1.2073E-002  
  502.00  1.1651E-002  
  502.50  1.1283E-002  
  503.00  1.1099E-002  
  503.50  1.0985E-002  
  504.00  1.0927E-002  
  504.50  1.0828E-002  
  505.00  1.0791E-002  
  505.50  1.0909E-002  
  506.00  1.0958E-002  
  506.50  1.1050E-002  
  507.00  1.1065E-002  
  507.50  1.1120E-002  
  508.00  1.1327E-002  
  508.50  1.1479E-002  
  509.00  1.1568E-002  
  509.50  1.1584E-002  
  510.00  1.1714E-002  
  510.50  1.1859E-002  
  511.00  1.2063E-002  
  511.50  1.2191E-002  
  512.00  1.2258E-002  
  512.50  1.2233E-002  
  513.00  1.2138E-002  
  513.50  1.2001E-002  
  514.00  1.1875E-002  
  514.50  1.1716E-002  
  515.00  1.1612E-002  
  515.50  1.1576E-002  
  516.00  1.1646E-002  
  516.50  1.1707E-002  
  517.00  1.1688E-002  
  517.50  1.1509E-002  
  518.00  1.1237E-002  
  518.50  1.0997E-002  
  519.00  1.0716E-002  
  519.50  1.0496E-002  
  520.00  1.0263E-002  
  520.50  1.0135E-002  
  521.00  1.0089E-002  
  521.50  9.9858E-003  
  522.00  9.8987E-003  
  522.50  9.7569E-003  
  523.00  9.6740E-003  
  523.50  9.5065E-003  
  524.00  9.3482E-003  
  524.50  9.2102E-003  
  525.00  9.0291E-003  
  525.50  8.9257E-003  
  526.00  8.8361E-003  
  526.50  8.9001E-003  
  527.00  8.8945E-003  
  527.50  8.7060E-003  
  528.00  8.5064E-003  
  528.50  8.4357E-003  
  529.00  8.5291E-003  
  529.50  8.4902E-003  
  530.00  8.4043E-003  
  530.50  8.3225E-003  
  531.00  8.4885E-003  
  531.50  8.9197E-003  
  532.00  9.5329E-003  
  532.50  1.0207E-002  
  533.00  1.0686E-002  
  533.50  1.0842E-002  
  534.00  1.0811E-002  
  534.50  1.0811E-002  
  535.00  1.1312E-002  
  535.50  1.2545E-002  
  536.00  1.4697E-002  
  536.50  1.7692E-002  
  537.00  2.1144E-002  
  537.50  2.4958E-002  
  538.00  2.9311E-002  
  538.50  3.5238E-002  
  539.00  4.4598E-002  
  539.50  5.9410E-002  
  540.00  8.1691E-002  
  540.50  1.0984E-001  
  541.00  1.3725E-001  
  541.50  1.5533E-001  
  542.00  1.5914E-001  
  542.50  1.5370E-001  
  543.00  1.4692E-001  
  543.50  1.4340E-001  
  544.00  1.5059E-001  
  544.50  1.7605E-001  
  545.00  2.2275E-001  
  545.50  2.6464E-001  
  546.00  2.6453E-001  
  546.50  2.2382E-001  
  547.00  1.6445E-001  
  547.50  1.1771E-001  
  548.00  9.3426E-002  
  548.50  7.9840E-002  
  549.00  7.0446E-002  
  549.50  6.2323E-002  
  550.00  5.5017E-002  
  550.50  4.8278E-002  
  551.00  4.2337E-002  
  551.50  3.7189E-002  
  552.00  3.2604E-002  
  552.50  2.8765E-002  
  553.00  2.5355E-002  
  553.50  2.2136E-002  
  554.00  1.9056E-002  
  554.50  1.6294E-002  
  555.00  1.4024E-002  
  555.50  1.2534E-002  
  556.00  1.1326E-002  
  556.50  1.0349E-002  
  557.00  9.3273E-003  
  557.50  8.4336E-003  
  558.00  7.7566E-003  
  558.50  7.2464E-003  
  559.00  6.7710E-003  
  559.50  6.4556E-003  
  560.00  6.1862E-003  
  560.50  5.9150E-003  
  561.00  5.6492E-003  
  561.50  5.3773E-003  
  562.00  5.2718E-003  
  562.50  5.1863E-003  
  563.00  5.0391E-003  
  563.50  4.9712E-003  
  564.00  4.8447E-003  
  564.50  4.7220E-003  
  565.00  4.4404E-003  
  565.50  4.1410E-003  
  566.00  3.8948E-003  
  566.50  3.8808E-003  
  567.00  3.9375E-003  
  567.50  4.0079E-003  
  568.00  3.9789E-003  
  568.50  3.8828E-003  
  569.00  3.6767E-003  
  569.50  3.4916E-003  
  570.00  3.3053E-003  
  570.50  3.1589E-003  
  571.00  3.0644E-003  
  571.50  3.0867E-003  
  572.00  3.0854E-003  
  572.50  3.1571E-003  
  573.00  3.1850E-003  
  573.50  3.2370E-003  
  574.00  3.5409E-003  
  574.50  4.1516E-003  
  575.00  6.8983E-003  
  575.50  1.4146E-002  
  576.00  2.5452E-002  
  576.50  3.5016E-002  
  577.00  3.7942E-002  
  577.50  3.5795E-002  
  578.00  3.5580E-002  
  578.50  3.9452E-002  
  579.00  4.1741E-002  
  579.50  3.8610E-002  
  580.00  3.2383E-002  
  580.50  2.7011E-002  
  581.00  2.4993E-002  
  581.50  2.5588E-002  
  582.00  2.8494E-002  
  582.50  3.1903E-002  
  583.00  3.4427E-002  
  583.50  3.5740E-002  
  584.00  3.5697E-002  
  584.50  3.4467E-002  
  585.00  3.2992E-002  
  585.50  3.3140E-002  
  586.00  3.6317E-002  
  586.50  4.1622E-002  
  587.00  4.4894E-002  
  587.50  4.3220E-002  
  588.00  3.6918E-002  
  588.50  2.9803E-002  
  589.00  2.4648E-002  
  589.50  2.2064E-002  
  590.00  2.1546E-002  
  590.50  2.2378E-002  
  591.00  2.4267E-002  
  591.50  2.7544E-002  
  592.00  3.1648E-002  
  592.50  3.4899E-002  
  593.00  3.5380E-002  
  593.50  3.1740E-002  
  594.00  2.5997E-002  
  594.50  2.0485E-002  
  595.00  1.6866E-002  
  595.50  1.4945E-002  
  596.00  1.4203E-002  
  596.50  1.4005E-002  
  597.00  1.4492E-002  
  597.50  1.5800E-002  
  598.00  1.8113E-002  
  598.50  2.0913E-002  
  599.00  2.3260E-002  
  599.50  2.3572E-002  
  600.00  2.1651E-002  
  600.50  1.8389E-002  
  601.00  1.5162E-002  
  601.50  1.2540E-002  
  602.00  1.0821E-002  
  602.50  9.8756E-003  
  603.00  9.8165E-003  
  603.50  1.0036E-002  
  604.00  1.0294E-002  
  604.50  1.0770E-002  
  605.00  1.1521E-002  
  605.50  1.2471E-002  
  606.00  1.3596E-002  
  606.50  1.5305E-002  
  607.00  1.8062E-002  
  607.50  2.2070E-002  
  608.00  2.8123E-002  
  608.50  3.8497E-002  
  609.00  5.8195E-002  
  609.50  1.0013E-001  
  610.00  1.6827E-001  
  610.50  2.5084E-001  
  611.00  3.0807E-001  
  611.50  3.1090E-001  
  612.00  2.6039E-001  
  612.50  1.9595E-001  
  613.00  1.4769E-001  
  613.50  1.2049E-001  
  614.00  1.0507E-001  
  614.50  9.2522E-002  
  615.00  7.8966E-002  
  615.50  6.4619E-002  
  616.00  5.1425E-002  
  616.50  4.0846E-002  
  617.00  3.3636E-002  
  617.50  2.8996E-002  
  618.00  2.6473E-002  
  618.50  2.5348E-002  
  619.00  2.5308E-002  
  619.50  2.6187E-002  
  620.00  2.7435E-002  
  620.50  2.8346E-002  
  621.00  2.8569E-002  
  621.50  2.8289E-002  
  622.00  2.8077E-002  
  622.50  2.8277E-002  
  623.00  2.9080E-002  
  623.50  2.9855E-002  
  624.00  3.0308E-002  
  624.50  3.0370E-002  
  625.00  3.0396E-002  
  625.50  3.0526E-002  
  626.00  3.0138E-002  
  626.50  2.9411E-002  
  627.00  2.8577E-002  
  627.50  2.7716E-002  
  628.00  2.7053E-002  
  628.50  2.6826E-002  
  629.00  2.8168E-002  
  629.50  3.2003E-002  
  630.00  3.7748E-002  
  630.50  4.2167E-002  
  631.00  4.1849E-002  
  631.50  3.5532E-002  
  632.00  2.6384E-002  
  632.50  1.7663E-002  
  633.00  1.1962E-002  
  633.50  8.9069E-003  
  634.00  7.8783E-003  
  634.50  7.2394E-003  
  635.00  6.6484E-003  
  635.50  6.0570E-003  
  636.00  5.7168E-003  
  636.50  5.5213E-003  
  637.00  5.4640E-003  
  637.50  5.3226E-003  
  638.00  5.0992E-003  
  638.50  4.6136E-003  
  639.00  4.3512E-003  
  639.50  4.3923E-003  
  640.00  4.5561E-003  
  640.50  4.5492E-003  
  641.00  4.4818E-003  
  641.50  4.5213E-003  
  642.00  4.7824E-003  
  642.50  4.9215E-003  
  643.00  4.9984E-003  
  643.50  4.8353E-003  
  644.00  4.6010E-003  
  644.50  4.3393E-003  
  645.00  4.3747E-003  
  645.50  4.5068E-003  
  646.00  4.6833E-003  
  646.50  4.6261E-003  
  647.00  4.5092E-003  
  647.50  4.4564E-003  
  648.00  4.8181E-003  
  648.50  5.5030E-003  
  649.00  7.0988E-003  
  649.50  9.5620E-003  
  650.00  1.1870E-002  
  650.50  1.2674E-002  
  651.00  1.1485E-002  
  651.50  9.7037E-003  
  652.00  8.3760E-003  
  652.50  7.7909E-003  
  653.00  7.4843E-003  
  653.50  7.2257E-003  
  654.00  6.4724E-003  
  654.50  5.7034E-003  
  655.00  4.9988E-003  
  655.50  4.9099E-003  
  656.00  4.8988E-003  
  656.50  4.9952E-003  
  657.00  4.9839E-003  
  657.50  5.1345E-003  
  658.00  5.0809E-003  
  658.50  4.7758E-003  
  659.00  4.2131E-003  
  659.50  3.7525E-003  
  660.00  3.5987E-003  
  660.50  4.1086E-003  
  661.00  5.0632E-003  
  661.50  6.6207E-003  
  662.00  7.9257E-003  
  662.50  8.6284E-003  
  663.00  8.1395E-003  
  663.50  6.8392E-003  
  664.00  5.0946E-003  
  664.50  4.0148E-003  
  665.00  3.5366E-003  
  665.50  3.5166E-003  
  666.00  3.4929E-003  
  666.50  3.6343E-003  
  667.00  3.8004E-003  
  667.50  3.6125E-003  
  668.00  3.5888E-003  
  668.50  3.4543E-003  
  669.00  3.4468E-003  
  669.50  3.2048E-003  
  670.00  3.2722E-003  
  670.50  3.0787E-003  
  671.00  3.0131E-003  
  671.50  3.0512E-003  
  672.00  3.1909E-003  
  672.50  3.2465E-003  
  673.00  3.1866E-003  
  673.50  2.9799E-003  
  674.00  2.7070E-003  
  674.50  2.5230E-003  
  675.00  2.8328E-003  
  675.50  2.8596E-003  
  676.00  2.8649E-003  
  676.50  2.7426E-003  
  677.00  2.7129E-003  
  677.50  2.6333E-003  
  678.00  2.6956E-003  
  678.50  3.0491E-003  
  679.00  3.2869E-003  
  679.50  3.3854E-003  
  680.00  3.2421E-003  
  680.50  3.0803E-003  
  681.00  2.9524E-003  
  681.50  2.8939E-003  
  682.00  2.6759E-003  
  682.50  2.3030E-003  
  683.00  1.8551E-003  
  683.50  1.6950E-003  
  684.00  1.9581E-003  
  684.50  2.3474E-003  
  685.00  2.6649E-003  
  685.50  3.2607E-003  
  686.00  4.3339E-003  
  686.50  5.7567E-003  
  687.00  7.0168E-003  
  687.50  7.5772E-003  
  688.00  7.0627E-003  
  688.50  5.8670E-003  
  689.00  4.4443E-003  
  689.50  3.5717E-003  
  690.00  2.7597E-003  
  690.50  2.3469E-003  
  691.00  2.0595E-003  
  691.50  1.9826E-003  
  692.00  2.2904E-003  
  692.50  3.3373E-003  
  693.00  4.7601E-003  
  693.50  5.4522E-003  
  694.00  5.1056E-003  
  694.50  3.9834E-003  
  695.00  2.7756E-003  
  695.50  1.6026E-003  
  696.00  1.2475E-003  
  696.50  1.2508E-003  
  697.00  1.2047E-003  
  697.50  9.0876E-004  
  698.00  5.6908E-004  
  698.50  7.5366E-004  
  699.00  8.1519E-004  
  699.50  1.3842E-003  
  700.00  1.6325E-003  
  700.50  1.9748E-003  
  701.00  1.7759E-003  
  701.50  1.8569E-003  
  702.00  1.9017E-003  
  702.50  2.1772E-003  
  703.00  2.3078E-003  
  703.50  3.0109E-003  
  704.00  3.8351E-003  
  704.50  5.1292E-003  
  705.00  6.5103E-003  
  705.50  8.9156E-003  
  706.00  1.1741E-002  
  706.50  1.4536E-002  
  707.00  1.5908E-002  
  707.50  1.6254E-002  
  708.00  1.6558E-002  
  708.50  1.7314E-002  
  709.00  1.7248E-002  
  709.50  1.4902E-002  
  710.00  1.1348E-002  
  710.50  8.8475E-003  
  711.00  9.4015E-003  
  711.50  1.2177E-002  
  712.00  1.4742E-002  
  712.50  1.4527E-002  
  713.00  1.1366E-002  
  713.50  7.0983E-003  
  714.00  3.6906E-003  
  714.50  1.7069E-003  
  715.00  8.1860E-004  
  715.50  6.8270E-004  
  716.00  5.8098E-004  
  716.50  5.5349E-004  
  717.00  7.4274E-004  
  717.50  8.1259E-004  
  718.00  6.8128E-004  
  718.50  6.1524E-004  
  719.00  6.5690E-004  
  719.50  5.6972E-004  
  720.00  4.5085E-004  
  720.50  6.3645E-004  
  721.00  8.5380E-004  
  721.50  9.4930E-004  
  722.00  1.3077E-003  
  722.50  1.3779E-003  
  723.00  1.1354E-003  
  723.50  1.1193E-003  
  724.00  1.2002E-003  
  724.50  8.8461E-004  
  725.00  3.5534E-004  
  725.50  1.1117E-004  
  726.00  5.1000E-004  
  726.50  7.9974E-004  
  727.00  8.5545E-004  
  727.50  5.1569E-004  
  728.00  4.2388E-004  
  728.50  6.2591E-004  
  729.00  9.5958E-004  
  729.50  1.1380E-003  
  730.00  1.0147E-003  
  730.50  1.0216E-003  
  731.00  8.0732E-004  
  731.50  6.5016E-004  
  732.00  2.7938E-005  
  732.50  0.0000E+000  
  733.00  0.0000E+000  
  733.50  4.3775E-004  
  734.00  1.1397E-003  
  734.50  1.1815E-003  
  735.00  1.0329E-003  
  735.50  5.8198E-004  
  736.00  4.3426E-004  
  736.50  1.8745E-004  
  737.00  2.5820E-004  
  737.50  4.3630E-004  
  738.00  5.4503E-004  
  738.50  2.5516E-004  
  739.00  0.0000E+000  
  739.50  4.7908E-005  
  740.00  4.2870E-004  
  740.50  3.8786E-004  
  741.00  8.3292E-005  
  741.50  0.0000E+000  
  742.00  1.5868E-005  
  742.50  2.3333E-004  
  743.00  6.9495E-004  
  743.50  3.5798E-004  
  744.00  1.9822E-004  
  744.50  3.8772E-004  
  745.00  4.2738E-004  
  745.50  4.6364E-004  
  746.00  9.6194E-005  
  746.50  2.8084E-004  
  747.00  4.6381E-004  
  747.50  9.9212E-004  
  748.00  8.6689E-004  
  748.50  5.8399E-004  
  749.00  2.4231E-004  
  749.50  5.7802E-004  
  750.00  9.2594E-004  
  750.50  6.3483E-004  
  751.00  4.2583E-004  
  751.50  3.7113E-004  
  752.00  2.6804E-004  
  752.50  0.0000E+000  
  753.00  0.0000E+000  
  753.50  1.2352E-005  
  754.00  3.8672E-004  
  754.50  6.3851E-004  
  755.00  4.0907E-004  
  755.50  1.1840E-005  
  756.00  0.0000E+000  
  756.50  3.0884E-006  
  757.00  2.6006E-004  
  757.50  4.6945E-004  
  758.00  1.4254E-003  
  758.50  4.0380E-003  
  759.00  7.1281E-003  
  759.50  1.0328E-002  
  760.00  1.1542E-002  
  760.50  1.0388E-002  
  761.00  7.0406E-003  
  761.50  3.7452E-003  
  762.00  1.3686E-003  
  762.50  7.2195E-005  
  763.00  0.0000E+000  
  763.50  0.0000E+000  
  764.00  0.0000E+000  
  764.50  0.0000E+000  
  765.00  7.9225E-005  
  765.50  1.5363E-004  
  766.00  0.0000E+000  
  766.50  9.7730E-007  
  767.00  4.0164E-004  
  767.50  6.5019E-004  
  768.00  1.2668E-003  
  768.50  1.9930E-003  
  769.00  2.3419E-003  
  769.50  1.9165E-003  
  770.00  1.4392E-003  
  770.50  9.5249E-004  
  771.00  5.8230E-004  
  771.50  2.9512E-004  
  772.00  5.3352E-004  
  772.50  6.3015E-004  
  773.00  7.8963E-004  
  773.50  7.1025E-004  
  774.00  6.9887E-004  
  774.50  4.8216E-004  
  775.00  0.0000E+000  
  775.50  0.0000E+000  
  776.00  0.0000E+000  
  776.50  1.3437E-004  
  777.00  2.5894E-004  
  777.50  1.0218E-004  
  778.00  0.0000E+000  
  778.50  0.0000E+000  
  779.00  0.0000E+000  
  779.50  0.0000E+000  
  780.00  0.0000E+000  
  780.50  2.8464E-005  
  781.00  0.0000E+000  
  781.50  0.0000E+000  
  782.00  0.0000E+000  
  782.50  0.0000E+000  
  783.00  6.9299E-004  
  783.50  1.3560E-003  
  784.00  1.0955E-003  
  784.50  1.1394E-003  
  785.00  1.2130E-003  
  785.50  1.5578E-003  
  786.00  9.0367E-004  
  786.50  2.8083E-004  
  787.00  0.0000E+000  
  787.50  0.0000E+000  
  788.00  0.0000E+000  
  788.50  0.0000E+000  
  789.00  0.0000E+000  
  789.50  3.7982E-006  
  790.00  0.0000E+000  
  790.50  0.0000E+000  
  791.00  4.2491E-005  
  791.50  1.4673E-004  
  792.00  0.0000E+000  
  792.50  0.0000E+000  
  793.00  0.0000E+000  
  793.50  0.0000E+000  
  794.00  0.0000E+000  
  794.50  0.0000E+000  
  795.00  5.7146E-004  
  795.50  8.0617E-004  
  796.00  6.3943E-004  
  796.50  4.3673E-004  
  797.00  5.7128E-004  
  797.50  7.0691E-004  
  798.00  1.7846E-003  
  798.50  1.7059E-003  
  799.00  9.0982E-004  
  799.50  9.5393E-004  
  800.00  8.6982E-004  
  800.50  6.0698E-004  
  801.00  1.2579E-005  
  801.50  1.1025E-004  
  802.00  3.4335E-004  
  802.50  1.0246E-003  
  803.00  9.9934E-004  
  803.50  5.6284E-004  
  804.00  1.1241E-004  
  804.50  7.1806E-004  
  805.00  1.3453E-003  
  805.50  1.9537E-003  
  806.00  2.1012E-003  
  806.50  7.2527E-004  
  807.00  3.7080E-006  
  807.50  0.0000E+000  
  808.00  8.0107E-004  
  808.50  1.9287E-003  
  809.00  4.2366E-003  
  809.50  7.5025E-003  
  810.00  1.2185E-002  
  810.50  1.8465E-002  
  811.00  2.3220E-002  
  811.50  2.1359E-002  
  812.00  1.3899E-002  
  812.50  5.5551E-003  
  813.00  1.3011E-003  
  813.50  8.7804E-004  
  814.00  6.9782E-004  
  814.50  3.9789E-004  
  815.00  0.0000E+000  
  815.50  0.0000E+000  
  816.00  0.0000E+000  
  816.50  1.8461E-005  
  817.00  6.9263E-004  
  817.50  8.9946E-004  
  818.00  9.6619E-004  
  818.50  1.4895E-003  
  819.00  2.4905E-003  
  819.50  2.6487E-003  
  820.00  1.6573E-003  
  820.50  8.2526E-004  
  821.00  5.6288E-004  
  821.50  1.2628E-003  
  822.00  4.6333E-005  
  822.50  0.0000E+000  
  823.00  0.0000E+000  
  823.50  1.2076E-003  
  824.00  1.8740E-003  
  824.50  1.4161E-003  
  825.00  1.6105E-003  
  825.50  3.6996E-003  
  826.00  5.0993E-003  
  826.50  4.3880E-003  
  827.00  2.7307E-003  
  827.50  1.2795E-003  
  828.00  2.2325E-003  
  828.50  4.5285E-003  
  829.00  6.0549E-003  
  829.50  6.0502E-003  
  830.00  5.3144E-003  
  830.50  3.7893E-003  
  831.00  1.9616E-003  
  831.50  9.4276E-005  
  832.00  0.0000E+000  
  832.50  0.0000E+000  
  833.00  5.1818E-004  
  833.50  3.4952E-004  
  834.00  1.1654E-006  
  834.50  0.0000E+000  
  835.00  0.0000E+000  
  835.50  0.0000E+000  
  836.00  0.0000E+000  
  836.50  0.0000E+000  
  837.00  0.0000E+000  
  837.50  0.0000E+000  
  838.00  0.0000E+000  
  838.50  4.7809E-006  
  839.00  1.1925E-003  
  839.50  9.0002E-004  
  840.00  0.0000E+000  
  840.50  0.0000E+000  
  841.00  1.0628E-004  
  841.50  1.1985E-003  
  842.00  1.9659E-003  
  842.50  2.8041E-003  
  843.00  1.9227E-003  
  843.50  0.0000E+000  
  844.00  0.0000E+000  
  844.50  0.0000E+000  
  845.00  0.0000E+000  
  845.50  0.0000E+000  
  846.00  7.1512E-004  
  846.50  1.9555E-003  
  847.00  1.0258E-003  
  847.50  4.3054E-005  
  848.00  1.9811E-004  
  848.50  9.1276E-004  
  849.00  1.4348E-004  
  849.50  0.0000E+000  
  850.00  1.5128E-003  
  850.50  3.3756E-003  
  851.00  2.1186E-003  
  851.50  1.5815E-003  
  852.00  8.4221E-004  
  852.50  0.0000E+000  
  853.00  0.0000E+000  
  853.50  0.0000E+000  
  854.00  7.6272E-004  
  854.50  1.4890E-003  
  855.00  2.8261E-003  
  855.50  3.5319E-003  
  856.00  2.5492E-003  
  856.50  2.0379E-004  
  857.00  6.9698E-006  
  857.50  0.0000E+000  
  858.00  0.0000E+000  
  858.50  9.3258E-004  
  859.00  7.0738E-004  
  859.50  1.1388E-003  
  860.00  1.7353E-003  
  860.50  1.6694E-003  
  861.00  2.7780E-004  
  861.50  0.0000E+000  
  862.00  0.0000E+000  
  862.50  0.0000E+000  
  863.00  0.0000E+000  
  863.50  0.0000E+000  
  864.00  0.0000E+000  
  864.50  0.0000E+000  
  865.00  0.0000E+000  
  865.50  3.2574E-004  
  866.00  7.6267E-005  
  866.50  0.0000E+000  
  867.00  0.0000E+000  
  867.50  0.0000E+000  
  868.00  2.0753E-003  
  868.50  2.9537E-003  
  869.00  2.3343E-003  
  869.50  2.9610E-003  
  870.00  5.3476E-003  
  870.50  6.4138E-003  
  871.00  6.6269E-003  
  871.50  5.6198E-003  
  872.00  3.4552E-003  
  872.50  3.2088E-003  
  873.00  3.4015E-003  
  873.50  3.3647E-003  
  874.00  4.6905E-003  
  874.50  4.8542E-003  
  875.00  4.5001E-003  
  875.50  3.4428E-003  
  876.00  2.5881E-003  
  876.50  4.7789E-003  
  877.00  5.7515E-003  
  877.50  4.8235E-003  
  878.00  3.3933E-003  
  878.50  1.2108E-003  
  879.00  1.1132E-003  
  879.50  1.4755E-003  
  880.00  0.0000E+000  
  880.50  0.0000E+000  
  881.00  2.7507E-003  
  881.50  3.7302E-003  
  882.00  1.0310E-003  
  882.50  0.0000E+000  
  883.00  5.7065E-004  
  883.50  0.0000E+000  
  884.00  0.0000E+000  
  884.50  0.0000E+000  
  885.00  0.0000E+000  
  885.50  1.0017E-005  
  886.00  4.0527E-003  
  886.50  2.1457E-003  
  887.00  2.5808E-003  
  887.50  3.0790E-003  
  888.00  3.6753E-004  
  888.50  0.0000E+000  
  889.00  6.2261E-004  
  889.50  1.6814E-003  
  890.00  4.1090E-003  
  890.50  5.9950E-003  
  891.00  4.6722E-003  
  891.50  3.3351E-003  
  892.00  4.6279E-003  
  892.50  6.1994E-003  
  893.00  5.6397E-003  
  893.50  2.6584E-003  
  894.00  0.0000E+000  
  894.50  0.0000E+000  
  895.00  2.2618E-003  
  895.50  2.9621E-003  
  896.00  2.8322E-003  
  896.50  6.3403E-004  
  897.00  0.0000E+000  
  897.50  7.8530E-004  
  898.00  2.0501E-003  
  898.50  0.0000E+000  
  899.00  0.0000E+000  
  899.50  1.6574E-006  
