
# From lspdd.org
# 
# Name: INC Rona A19 Domestique
# Indice spectral Valeur 
# MSI 2.95 
# SLI 2.92 
# IPI 2.05 
# Pourcentage de bleu 64.8 
# Caractéristique Valeur 
# CCT calculée (K) 100000000000 
# CCT du fabricant (K) ND 
# Tension (V) 130 
# Puissance (W) 60.0 
# Efficacité lumineuse (Lum/W) ND 
#
# Image: '/app/system/img_1s/2755/medium_image1.jpg?1612236543'
# 

  273.00  0.0000E+000  
  273.50  0.0000E+000  
  274.00  0.0000E+000  
  274.50  0.0000E+000  
  275.00  0.0000E+000  
  275.50  0.0000E+000  
  276.00  0.0000E+000  
  276.50  0.0000E+000  
  277.00  0.0000E+000  
  277.50  0.0000E+000  
  278.00  0.0000E+000  
  278.50  0.0000E+000  
  279.00  0.0000E+000  
  279.50  0.0000E+000  
  280.00  0.0000E+000  
  280.50  0.0000E+000  
  281.00  0.0000E+000  
  281.50  0.0000E+000  
  282.00  0.0000E+000  
  282.50  0.0000E+000  
  283.00  0.0000E+000  
  283.50  0.0000E+000  
  284.00  0.0000E+000  
  284.50  0.0000E+000  
  285.00  0.0000E+000  
  285.50  0.0000E+000  
  286.00  0.0000E+000  
  286.50  0.0000E+000  
  287.00  0.0000E+000  
  287.50  0.0000E+000  
  288.00  0.0000E+000  
  288.50  0.0000E+000  
  289.00  0.0000E+000  
  289.50  0.0000E+000  
  290.00  0.0000E+000  
  290.50  0.0000E+000  
  291.00  0.0000E+000  
  291.50  0.0000E+000  
  292.00  0.0000E+000  
  292.50  0.0000E+000  
  293.00  0.0000E+000  
  293.50  0.0000E+000  
  294.00  0.0000E+000  
  294.50  0.0000E+000  
  295.00  0.0000E+000  
  295.50  0.0000E+000  
  296.00  0.0000E+000  
  296.50  0.0000E+000  
  297.00  0.0000E+000  
  297.50  0.0000E+000  
  298.00  0.0000E+000  
  298.50  0.0000E+000  
  299.00  0.0000E+000  
  299.50  0.0000E+000  
  300.00  2.5410E-004  
  300.50  7.2189E-004  
  301.00  6.9028E-004  
  301.50  7.5293E-004  
  302.00  7.2314E-004  
  302.50  5.5493E-004  
  303.00  6.1457E-004  
  303.50  5.8360E-004  
  304.00  8.4334E-004  
  304.50  9.4626E-004  
  305.00  8.4968E-004  
  305.50  6.9220E-004  
  306.00  3.6796E-004  
  306.50  5.1680E-004  
  307.00  6.3888E-004  
  307.50  7.6516E-004  
  308.00  6.6617E-004  
  308.50  4.9665E-004  
  309.00  1.3960E-004  
  309.50  0.0000E+000  
  310.00  0.0000E+000  
  310.50  2.0794E-005  
  311.00  4.9028E-004  
  311.50  1.2319E-003  
  312.00  1.8315E-003  
  312.50  2.0670E-003  
  313.00  1.7576E-003  
  313.50  1.2440E-003  
  314.00  7.8157E-004  
  314.50  7.7735E-004  
  315.00  9.8746E-004  
  315.50  9.4363E-004  
  316.00  8.2529E-004  
  316.50  6.7295E-004  
  317.00  5.2202E-004  
  317.50  5.2628E-004  
  318.00  5.4302E-004  
  318.50  2.6561E-004  
  319.00  3.0187E-004  
  319.50  4.3056E-004  
  320.00  6.9478E-004  
  320.50  1.0778E-003  
  321.00  1.0601E-003  
  321.50  8.6135E-004  
  322.00  8.4363E-004  
  322.50  6.1421E-004  
  323.00  5.1102E-004  
  323.50  4.4518E-004  
  324.00  1.5234E-004  
  324.50  9.8696E-005  
  325.00  1.7231E-004  
  325.50  1.9034E-004  
  326.00  3.3906E-004  
  326.50  4.1695E-004  
  327.00  3.7850E-004  
  327.50  6.2812E-004  
  328.00  8.8791E-004  
  328.50  9.3416E-004  
  329.00  1.1118E-003  
  329.50  9.6076E-004  
  330.00  4.7501E-004  
  330.50  4.0278E-004  
  331.00  2.9458E-004  
  331.50  2.3344E-004  
  332.00  3.9394E-004  
  332.50  5.4940E-004  
  333.00  8.0170E-004  
  333.50  1.0754E-003  
  334.00  1.2330E-003  
  334.50  1.0221E-003  
  335.00  8.9296E-004  
  335.50  6.0307E-004  
  336.00  4.2556E-004  
  336.50  2.8716E-004  
  337.00  2.5637E-004  
  337.50  3.3605E-004  
  338.00  4.3505E-004  
  338.50  5.3276E-004  
  339.00  6.4865E-004  
  339.50  7.0576E-004  
  340.00  6.2758E-004  
  340.50  5.5376E-004  
  341.00  3.8030E-004  
  341.50  3.6172E-004  
  342.00  5.1964E-004  
  342.50  6.8797E-004  
  343.00  4.8522E-004  
  343.50  2.6820E-004  
  344.00  4.9034E-005  
  344.50  2.0169E-004  
  345.00  6.9174E-004  
  345.50  7.0037E-004  
  346.00  4.4349E-004  
  346.50  1.3019E-004  
  347.00  0.0000E+000  
  347.50  0.0000E+000  
  348.00  0.0000E+000  
  348.50  0.0000E+000  
  349.00  0.0000E+000  
  349.50  0.0000E+000  
  350.00  2.6127E-004  
  350.50  4.8690E-004  
  351.00  7.8170E-004  
  351.50  1.0070E-003  
  352.00  7.0949E-004  
  352.50  4.3898E-004  
  353.00  4.2448E-004  
  353.50  6.6351E-004  
  354.00  1.0359E-003  
  354.50  1.1955E-003  
  355.00  9.4408E-004  
  355.50  7.2176E-004  
  356.00  6.0560E-004  
  356.50  5.4304E-004  
  357.00  5.2924E-004  
  357.50  5.5012E-004  
  358.00  6.0067E-004  
  358.50  5.0489E-004  
  359.00  4.5848E-004  
  359.50  3.9401E-004  
  360.00  2.1999E-004  
  360.50  6.0877E-005  
  361.00  1.3911E-006  
  361.50  0.0000E+000  
  362.00  0.0000E+000  
  362.50  0.0000E+000  
  363.00  2.2031E-005  
  363.50  2.3789E-004  
  364.00  7.2623E-004  
  364.50  9.3397E-004  
  365.00  9.2816E-004  
  365.50  7.2617E-004  
  366.00  4.2530E-004  
  366.50  2.9394E-004  
  367.00  3.1538E-004  
  367.50  3.7855E-004  
  368.00  2.9544E-004  
  368.50  2.5560E-004  
  369.00  1.7846E-004  
  369.50  3.5944E-004  
  370.00  6.7337E-004  
  370.50  9.1260E-004  
  371.00  9.3079E-004  
  371.50  6.6506E-004  
  372.00  6.3449E-004  
  372.50  8.6928E-004  
  373.00  1.1913E-003  
  373.50  1.6718E-003  
  374.00  1.6275E-003  
  374.50  1.5392E-003  
  375.00  1.2049E-003  
  375.50  7.6527E-004  
  376.00  6.7668E-004  
  376.50  4.3860E-004  
  377.00  4.7857E-004  
  377.50  3.4347E-004  
  378.00  2.8134E-004  
  378.50  4.9891E-004  
  379.00  6.3024E-004  
  379.50  9.0126E-004  
  380.00  9.9023E-004  
  380.50  9.8434E-004  
  381.00  9.7847E-004  
  381.50  7.7212E-004  
  382.00  5.0826E-004  
  382.50  3.9822E-004  
  383.00  3.5075E-004  
  383.50  3.1392E-004  
  384.00  5.3912E-005  
  384.50  0.0000E+000  
  385.00  0.0000E+000  
  385.50  0.0000E+000  
  386.00  8.8320E-005  
  386.50  3.8840E-004  
  387.00  7.4980E-004  
  387.50  9.1008E-004  
  388.00  7.8717E-004  
  388.50  7.0960E-004  
  389.00  3.7588E-004  
  389.50  3.8333E-004  
  390.00  6.2057E-004  
  390.50  7.4426E-004  
  391.00  1.1768E-003  
  391.50  1.2835E-003  
  392.00  1.2189E-003  
  392.50  1.1752E-003  
  393.00  1.0955E-003  
  393.50  1.0371E-003  
  394.00  8.6963E-004  
  394.50  6.9960E-004  
  395.00  7.3526E-004  
  395.50  9.5891E-004  
  396.00  1.0904E-003  
  396.50  1.1958E-003  
  397.00  1.2681E-003  
  397.50  1.2766E-003  
  398.00  1.4265E-003  
  398.50  1.2492E-003  
  399.00  1.2711E-003  
  399.50  1.0927E-003  
  400.00  9.5045E-004  
  400.50  9.6687E-004  
  401.00  9.7234E-004  
  401.50  1.2444E-003  
  402.00  1.5115E-003  
  402.50  1.6526E-003  
  403.00  1.7599E-003  
  403.50  1.7753E-003  
  404.00  1.6887E-003  
  404.50  1.6317E-003  
  405.00  1.5277E-003  
  405.50  1.5746E-003  
  406.00  1.7260E-003  
  406.50  1.8261E-003  
  407.00  1.9405E-003  
  407.50  2.0104E-003  
  408.00  2.1147E-003  
  408.50  2.0708E-003  
  409.00  1.8907E-003  
  409.50  1.8443E-003  
  410.00  1.8690E-003  
  410.50  2.0977E-003  
  411.00  2.1376E-003  
  411.50  2.0618E-003  
  412.00  2.0043E-003  
  412.50  2.1362E-003  
  413.00  2.4937E-003  
  413.50  2.7878E-003  
  414.00  3.0047E-003  
  414.50  3.0905E-003  
  415.00  2.9913E-003  
  415.50  3.0276E-003  
  416.00  3.1220E-003  
  416.50  3.4228E-003  
  417.00  3.7941E-003  
  417.50  3.7827E-003  
  418.00  3.5633E-003  
  418.50  3.3411E-003  
  419.00  3.2730E-003  
  419.50  3.5746E-003  
  420.00  3.7676E-003  
  420.50  3.8645E-003  
  421.00  3.7980E-003  
  421.50  3.8010E-003  
  422.00  4.0325E-003  
  422.50  4.0334E-003  
  423.00  4.1292E-003  
  423.50  4.2290E-003  
  424.00  4.2492E-003  
  424.50  4.2806E-003  
  425.00  4.2143E-003  
  425.50  4.2317E-003  
  426.00  4.4027E-003  
  426.50  4.4280E-003  
  427.00  4.2758E-003  
  427.50  4.2820E-003  
  428.00  4.3292E-003  
  428.50  4.6361E-003  
  429.00  4.9423E-003  
  429.50  5.1715E-003  
  430.00  5.2426E-003  
  430.50  5.0247E-003  
  431.00  4.8980E-003  
  431.50  4.7927E-003  
  432.00  5.0320E-003  
  432.50  5.2198E-003  
  433.00  5.2351E-003  
  433.50  5.4313E-003  
  434.00  5.6089E-003  
  434.50  5.9096E-003  
  435.00  6.0025E-003  
  435.50  5.7933E-003  
  436.00  5.7748E-003  
  436.50  5.6705E-003  
  437.00  5.9181E-003  
  437.50  5.9963E-003  
  438.00  5.9979E-003  
  438.50  5.9128E-003  
  439.00  5.9441E-003  
  439.50  6.1273E-003  
  440.00  6.5134E-003  
  440.50  6.7091E-003  
  441.00  6.8327E-003  
  441.50  6.8511E-003  
  442.00  7.0008E-003  
  442.50  7.2358E-003  
  443.00  7.2846E-003  
  443.50  7.1359E-003  
  444.00  6.8887E-003  
  444.50  6.8171E-003  
  445.00  6.8119E-003  
  445.50  7.1390E-003  
  446.00  7.5310E-003  
  446.50  7.7607E-003  
  447.00  8.0857E-003  
  447.50  7.9570E-003  
  448.00  7.7285E-003  
  448.50  7.3744E-003  
  449.00  7.3588E-003  
  449.50  7.4160E-003  
  450.00  7.6390E-003  
  450.50  7.8462E-003  
  451.00  8.0833E-003  
  451.50  8.1959E-003  
  452.00  8.2616E-003  
  452.50  7.9769E-003  
  453.00  7.9415E-003  
  453.50  7.7663E-003  
  454.00  7.6191E-003  
  454.50  7.5014E-003  
  455.00  7.5295E-003  
  455.50  7.7133E-003  
  456.00  8.0501E-003  
  456.50  8.3069E-003  
  457.00  8.5241E-003  
  457.50  8.6710E-003  
  458.00  8.6808E-003  
  458.50  8.7255E-003  
  459.00  8.8931E-003  
  459.50  9.0971E-003  
  460.00  9.1262E-003  
  460.50  8.9779E-003  
  461.00  9.0553E-003  
  461.50  9.1591E-003  
  462.00  9.3333E-003  
  462.50  9.2688E-003  
  463.00  9.0130E-003  
  463.50  8.8706E-003  
  464.00  9.0029E-003  
  464.50  9.2426E-003  
  465.00  9.6204E-003  
  465.50  9.7471E-003  
  466.00  9.7810E-003  
  466.50  9.8993E-003  
  467.00  9.8714E-003  
  467.50  9.9856E-003  
  468.00  1.0049E-002  
  468.50  1.0310E-002  
  469.00  1.0447E-002  
  469.50  1.0371E-002  
  470.00  1.0433E-002  
  470.50  1.0471E-002  
  471.00  1.0592E-002  
  471.50  1.0594E-002  
  472.00  1.0548E-002  
  472.50  1.0467E-002  
  473.00  1.0414E-002  
  473.50  1.0406E-002  
  474.00  1.0497E-002  
  474.50  1.0601E-002  
  475.00  1.0627E-002  
  475.50  1.0307E-002  
  476.00  1.0099E-002  
  476.50  1.0002E-002  
  477.00  1.0184E-002  
  477.50  1.0366E-002  
  478.00  1.0496E-002  
  478.50  1.0588E-002  
  479.00  1.0602E-002  
  479.50  1.0557E-002  
  480.00  1.0733E-002  
  480.50  1.0829E-002  
  481.00  1.1002E-002  
  481.50  1.1176E-002  
  482.00  1.1134E-002  
  482.50  1.0998E-002  
  483.00  1.0650E-002  
  483.50  1.0544E-002  
  484.00  1.0574E-002  
  484.50  1.0587E-002  
  485.00  1.0543E-002  
  485.50  1.0362E-002  
  486.00  1.0255E-002  
  486.50  1.0158E-002  
  487.00  1.0100E-002  
  487.50  1.0064E-002  
  488.00  1.0031E-002  
  488.50  9.9802E-003  
  489.00  1.0000E-002  
  489.50  1.0031E-002  
  490.00  1.0095E-002  
  490.50  1.0037E-002  
  491.00  9.9173E-003  
  491.50  9.8636E-003  
  492.00  9.8383E-003  
  492.50  9.8770E-003  
  493.00  9.7787E-003  
  493.50  9.5843E-003  
  494.00  9.3356E-003  
  494.50  9.2015E-003  
  495.00  9.1264E-003  
  495.50  9.1048E-003  
  496.00  9.0729E-003  
  496.50  9.0824E-003  
  497.00  9.0268E-003  
  497.50  8.9399E-003  
  498.00  8.8629E-003  
  498.50  8.7411E-003  
  499.00  8.7314E-003  
  499.50  8.6368E-003  
  500.00  8.5687E-003  
  500.50  8.4695E-003  
  501.00  8.3879E-003  
  501.50  8.4353E-003  
  502.00  8.5063E-003  
  502.50  8.5014E-003  
  503.00  8.3469E-003  
  503.50  8.1112E-003  
  504.00  7.8914E-003  
  504.50  7.7973E-003  
  505.00  7.7066E-003  
  505.50  7.4910E-003  
  506.00  7.3215E-003  
  506.50  7.1457E-003  
  507.00  7.0306E-003  
  507.50  6.8713E-003  
  508.00  6.7347E-003  
  508.50  6.6995E-003  
  509.00  6.6288E-003  
  509.50  6.5574E-003  
  510.00  6.4821E-003  
  510.50  6.5333E-003  
  511.00  6.5568E-003  
  511.50  6.4735E-003  
  512.00  6.2476E-003  
  512.50  6.1130E-003  
  513.00  6.0252E-003  
  513.50  6.0803E-003  
  514.00  6.0021E-003  
  514.50  5.8594E-003  
  515.00  5.6022E-003  
  515.50  5.3716E-003  
  516.00  5.2544E-003  
  516.50  5.2459E-003  
  517.00  5.3286E-003  
  517.50  5.3644E-003  
  518.00  5.2393E-003  
  518.50  4.9741E-003  
  519.00  4.7345E-003  
  519.50  4.6200E-003  
  520.00  4.5917E-003  
  520.50  4.5179E-003  
  521.00  4.4080E-003  
  521.50  4.3433E-003  
  522.00  4.2654E-003  
  522.50  4.2030E-003  
  523.00  4.0086E-003  
  523.50  3.7947E-003  
  524.00  3.6243E-003  
  524.50  3.4699E-003  
  525.00  3.4009E-003  
  525.50  3.2589E-003  
  526.00  3.0141E-003  
  526.50  2.8960E-003  
  527.00  2.7806E-003  
  527.50  2.8912E-003  
  528.00  2.8443E-003  
  528.50  2.8427E-003  
  529.00  2.7589E-003  
  529.50  2.6393E-003  
  530.00  2.4839E-003  
  530.50  2.2962E-003  
  531.00  2.2417E-003  
  531.50  2.2592E-003  
  532.00  2.2906E-003  
  532.50  2.1967E-003  
  533.00  2.0880E-003  
  533.50  1.9256E-003  
  534.00  1.7946E-003  
  534.50  1.6325E-003  
  535.00  1.5954E-003  
  535.50  1.6052E-003  
  536.00  1.6999E-003  
  536.50  1.6646E-003  
  537.00  1.6225E-003  
  537.50  1.5358E-003  
  538.00  1.3764E-003  
  538.50  1.1540E-003  
  539.00  1.0602E-003  
  539.50  9.8166E-004  
  540.00  1.0723E-003  
  540.50  1.0452E-003  
  541.00  1.0502E-003  
  541.50  1.1054E-003  
  542.00  1.1053E-003  
  542.50  1.0520E-003  
  543.00  9.1473E-004  
  543.50  7.9227E-004  
  544.00  7.9432E-004  
  544.50  8.0173E-004  
  545.00  7.4688E-004  
  545.50  5.6973E-004  
  546.00  4.2117E-004  
  546.50  3.5579E-004  
  547.00  3.2088E-004  
  547.50  3.5041E-004  
  548.00  4.5018E-004  
  548.50  6.3532E-004  
  549.00  7.3808E-004  
  549.50  8.0240E-004  
  550.00  7.5100E-004  
  550.50  6.2825E-004  
  551.00  4.7116E-004  
  551.50  3.5313E-004  
  552.00  3.4945E-004  
  552.50  3.6424E-004  
  553.00  4.0522E-004  
  553.50  4.5531E-004  
  554.00  5.4459E-004  
  554.50  5.3855E-004  
  555.00  3.8207E-004  
  555.50  1.7146E-004  
  556.00  4.5453E-005  
  556.50  1.4160E-004  
  557.00  2.8208E-004  
  557.50  3.7222E-004  
  558.00  4.8549E-004  
  558.50  5.4403E-004  
  559.00  5.0700E-004  
  559.50  4.3851E-004  
  560.00  3.6873E-004  
  560.50  4.2359E-004  
  561.00  4.1360E-004  
  561.50  3.3089E-004  
  562.00  3.6672E-004  
  562.50  4.0174E-004  
  563.00  3.8958E-004  
  563.50  3.9239E-004  
  564.00  4.1992E-004  
  564.50  4.7677E-004  
  565.00  4.7426E-004  
  565.50  4.0808E-004  
  566.00  4.0631E-004  
  566.50  4.1149E-004  
  567.00  2.9127E-004  
  567.50  2.4375E-004  
  568.00  2.4887E-004  
  568.50  2.1858E-004  
  569.00  1.7340E-004  
  569.50  1.9996E-004  
  570.00  4.4731E-004  
  570.50  5.3364E-004  
  571.00  3.3727E-004  
  571.50  1.6633E-004  
  572.00  7.3226E-005  
  572.50  1.0052E-004  
  573.00  1.1450E-004  
  573.50  6.5495E-005  
  574.00  9.0826E-005  
  574.50  2.3527E-004  
  575.00  3.3694E-004  
  575.50  4.4061E-004  
  576.00  2.8085E-004  
  576.50  8.9186E-005  
  577.00  2.3286E-006  
  577.50  2.8556E-005  
  578.00  1.0612E-004  
  578.50  2.3065E-004  
  579.00  2.6677E-004  
  579.50  2.7433E-004  
  580.00  2.5840E-004  
  580.50  3.0057E-004  
  581.00  4.2150E-004  
  581.50  4.2827E-004  
  582.00  4.2858E-004  
  582.50  2.8803E-004  
  583.00  6.2541E-005  
  583.50  0.0000E+000  
  584.00  0.0000E+000  
  584.50  1.5233E-004  
  585.00  2.4936E-004  
  585.50  2.4432E-004  
  586.00  4.0556E-005  
  586.50  0.0000E+000  
  587.00  0.0000E+000  
  587.50  0.0000E+000  
  588.00  1.2447E-004  
  588.50  1.3230E-004  
  589.00  8.0090E-005  
  589.50  1.5623E-005  
  590.00  9.3845E-005  
  590.50  2.0105E-004  
  591.00  1.8189E-004  
  591.50  1.1903E-004  
  592.00  7.6614E-005  
  592.50  1.0560E-004  
  593.00  1.9663E-004  
  593.50  1.4739E-004  
  594.00  2.0123E-004  
  594.50  2.9736E-004  
  595.00  5.3641E-004  
  595.50  5.6206E-004  
  596.00  3.4210E-004  
  596.50  4.8254E-005  
  597.00  0.0000E+000  
  597.50  0.0000E+000  
  598.00  0.0000E+000  
  598.50  1.4619E-006  
  599.00  4.5432E-006  
  599.50  5.6870E-005  
  600.00  9.3555E-005  
  600.50  1.2157E-004  
  601.00  1.1635E-004  
  601.50  1.7959E-004  
  602.00  2.3536E-004  
  602.50  2.9565E-004  
  603.00  2.8914E-004  
  603.50  3.0975E-004  
  604.00  3.2381E-004  
  604.50  3.1552E-004  
  605.00  3.2086E-004  
  605.50  2.0334E-004  
  606.00  1.6641E-004  
  606.50  2.0061E-004  
  607.00  1.1390E-004  
  607.50  1.2932E-004  
  608.00  1.0273E-005  
  608.50  0.0000E+000  
  609.00  4.2359E-005  
  609.50  2.2614E-004  
  610.00  5.0683E-004  
  610.50  3.2514E-004  
  611.00  2.5945E-004  
  611.50  1.9874E-004  
  612.00  2.9640E-004  
  612.50  3.7844E-004  
  613.00  3.5958E-004  
  613.50  4.3065E-004  
  614.00  3.2755E-004  
  614.50  1.4896E-004  
  615.00  5.9699E-005  
  615.50  9.8839E-005  
  616.00  1.5163E-004  
  616.50  2.6428E-004  
  617.00  2.0967E-004  
  617.50  3.2122E-004  
  618.00  4.7828E-004  
  618.50  6.2270E-004  
  619.00  6.3753E-004  
  619.50  2.9134E-004  
  620.00  7.3976E-005  
  620.50  0.0000E+000  
  621.00  3.3764E-005  
  621.50  4.8252E-005  
  622.00  1.0031E-004  
  622.50  1.6285E-004  
  623.00  1.3477E-004  
  623.50  2.0085E-004  
  624.00  2.7682E-004  
  624.50  3.1978E-004  
  625.00  4.6716E-004  
  625.50  6.2899E-004  
  626.00  6.9007E-004  
  626.50  6.0833E-004  
  627.00  1.4835E-004  
  627.50  0.0000E+000  
  628.00  0.0000E+000  
  628.50  1.9846E-004  
  629.00  3.7483E-004  
  629.50  6.2448E-004  
  630.00  6.3429E-004  
  630.50  7.2877E-004  
  631.00  5.9164E-004  
  631.50  4.0570E-004  
  632.00  3.1692E-004  
  632.50  3.8102E-004  
  633.00  6.2943E-004  
  633.50  8.3930E-004  
  634.00  8.3626E-004  
  634.50  6.1033E-004  
  635.00  2.4448E-004  
  635.50  8.6098E-005  
  636.00  1.2397E-004  
  636.50  4.0136E-004  
  637.00  7.2976E-004  
  637.50  8.8639E-004  
  638.00  9.1476E-004  
  638.50  5.8027E-004  
  639.00  4.4995E-004  
  639.50  1.5251E-004  
  640.00  2.9163E-004  
  640.50  2.5543E-004  
  641.00  2.8071E-004  
  641.50  2.5679E-004  
  642.00  4.2963E-004  
  642.50  5.4630E-004  
  643.00  4.9889E-004  
  643.50  1.4368E-004  
  644.00  1.4161E-004  
  644.50  2.8414E-004  
  645.00  5.2578E-004  
  645.50  6.0488E-004  
  646.00  5.0191E-004  
  646.50  5.7996E-004  
  647.00  5.4035E-004  
  647.50  6.5960E-004  
  648.00  6.3548E-004  
  648.50  6.7517E-004  
  649.00  6.5527E-004  
  649.50  5.8039E-004  
  650.00  5.0996E-004  
  650.50  4.5144E-004  
  651.00  4.4149E-004  
  651.50  3.9294E-004  
  652.00  2.8660E-004  
  652.50  2.9901E-004  
  653.00  4.6668E-004  
  653.50  6.0378E-004  
  654.00  5.6458E-004  
  654.50  4.1519E-004  
  655.00  1.5173E-004  
  655.50  1.2082E-004  
  656.00  2.7143E-004  
  656.50  6.3560E-004  
  657.00  8.7671E-004  
  657.50  8.2344E-004  
  658.00  5.6878E-004  
  658.50  4.7173E-004  
  659.00  4.5753E-004  
  659.50  4.9195E-004  
  660.00  3.1333E-004  
  660.50  3.1131E-004  
  661.00  5.8617E-004  
  661.50  7.6778E-004  
  662.00  7.2251E-004  
  662.50  5.1840E-004  
  663.00  2.5780E-004  
  663.50  2.7749E-004  
  664.00  1.7795E-004  
  664.50  3.0638E-004  
  665.00  3.2768E-004  
  665.50  4.1088E-004  
  666.00  5.4579E-004  
  666.50  5.9728E-004  
  667.00  6.4494E-004  
  667.50  5.5792E-004  
  668.00  4.4259E-004  
  668.50  5.0521E-004  
  669.00  5.9653E-004  
  669.50  6.0871E-004  
  670.00  2.7367E-004  
  670.50  1.6866E-004  
  671.00  1.5142E-004  
  671.50  3.8274E-004  
  672.00  3.0624E-004  
  672.50  4.5317E-004  
  673.00  5.4001E-004  
  673.50  5.6520E-004  
  674.00  4.2396E-004  
  674.50  3.2517E-004  
  675.00  4.8523E-004  
  675.50  4.6899E-004  
  676.00  4.2363E-004  
  676.50  2.6233E-004  
  677.00  1.0631E-005  
  677.50  3.2176E-006  
  678.00  1.6156E-005  
  678.50  3.2943E-004  
  679.00  5.1280E-004  
  679.50  7.2891E-004  
  680.00  6.7902E-004  
  680.50  4.0898E-004  
  681.00  2.3267E-004  
  681.50  2.9576E-004  
  682.00  4.0281E-004  
  682.50  4.8031E-004  
  683.00  6.6292E-004  
  683.50  7.6386E-004  
  684.00  7.6065E-004  
  684.50  6.5939E-004  
  685.00  8.1275E-004  
  685.50  7.0920E-004  
  686.00  4.1573E-004  
  686.50  2.3452E-004  
  687.00  4.2584E-004  
  687.50  1.0075E-003  
  688.00  1.2537E-003  
  688.50  1.2228E-003  
  689.00  1.0357E-003  
  689.50  8.6799E-004  
  690.00  6.0202E-004  
  690.50  1.8545E-004  
  691.00  4.5040E-004  
  691.50  8.4563E-004  
  692.00  1.0539E-003  
  692.50  8.5660E-004  
  693.00  1.0142E-003  
  693.50  1.2870E-003  
  694.00  1.3226E-003  
  694.50  8.7709E-004  
  695.00  7.3884E-004  
  695.50  9.3253E-004  
  696.00  1.5141E-003  
  696.50  1.4232E-003  
  697.00  1.2118E-003  
  697.50  1.2134E-003  
  698.00  1.6396E-003  
  698.50  2.0020E-003  
  699.00  1.7159E-003  
  699.50  1.4487E-003  
  700.00  1.2807E-003  
  700.50  1.4371E-003  
  701.00  1.7410E-003  
  701.50  2.0708E-003  
  702.00  2.6499E-003  
  702.50  2.8212E-003  
  703.00  2.9790E-003  
  703.50  2.8856E-003  
  704.00  3.2103E-003  
  704.50  3.5820E-003  
  705.00  3.6804E-003  
  705.50  3.7093E-003  
  706.00  3.7684E-003  
  706.50  4.0847E-003  
  707.00  4.3889E-003  
  707.50  4.7203E-003  
  708.00  5.0421E-003  
  708.50  5.3568E-003  
  709.00  5.6480E-003  
  709.50  6.1020E-003  
  710.00  6.7025E-003  
  710.50  7.2902E-003  
  711.00  7.2778E-003  
  711.50  7.1226E-003  
  712.00  7.0631E-003  
  712.50  7.8251E-003  
  713.00  8.5477E-003  
  713.50  9.1464E-003  
  714.00  9.3425E-003  
  714.50  9.9160E-003  
  715.00  1.0332E-002  
  715.50  1.0645E-002  
  716.00  1.1125E-002  
  716.50  1.1581E-002  
  717.00  1.1765E-002  
  717.50  1.1845E-002  
  718.00  1.2479E-002  
  718.50  1.3017E-002  
  719.00  1.3572E-002  
  719.50  1.4211E-002  
  720.00  1.5203E-002  
  720.50  1.5997E-002  
  721.00  1.6318E-002  
  721.50  1.7039E-002  
  722.00  1.7593E-002  
  722.50  1.8702E-002  
  723.00  1.9768E-002  
  723.50  2.0697E-002  
  724.00  2.0753E-002  
  724.50  2.0634E-002  
  725.00  2.1211E-002  
  725.50  2.1908E-002  
  726.00  2.2603E-002  
  726.50  2.3478E-002  
  727.00  2.4299E-002  
  727.50  2.5130E-002  
  728.00  2.5687E-002  
  728.50  2.6428E-002  
  729.00  2.7584E-002  
  729.50  2.8743E-002  
  730.00  2.9738E-002  
  730.50  3.0084E-002  
  731.00  3.0564E-002  
  731.50  3.1130E-002  
  732.00  3.2273E-002  
  732.50  3.3179E-002  
  733.00  3.4470E-002  
  733.50  3.5438E-002  
  734.00  3.6452E-002  
  734.50  3.6956E-002  
  735.00  3.7033E-002  
  735.50  3.7935E-002  
  736.00  3.8759E-002  
  736.50  3.9924E-002  
  737.00  4.0877E-002  
  737.50  4.2177E-002  
  738.00  4.2908E-002  
  738.50  4.3855E-002  
  739.00  4.4701E-002  
  739.50  4.5628E-002  
  740.00  4.6456E-002  
  740.50  4.7454E-002  
  741.00  4.8437E-002  
  741.50  4.9395E-002  
  742.00  5.0081E-002  
  742.50  5.0542E-002  
  743.00  5.1308E-002  
  743.50  5.2632E-002  
  744.00  5.4010E-002  
  744.50  5.4558E-002  
  745.00  5.5333E-002  
  745.50  5.5864E-002  
  746.00  5.7017E-002  
  746.50  5.8206E-002  
  747.00  5.9363E-002  
  747.50  5.9859E-002  
  748.00  6.0723E-002  
  748.50  6.2313E-002  
  749.00  6.3713E-002  
  749.50  6.4380E-002  
  750.00  6.5061E-002  
  750.50  6.5887E-002  
  751.00  6.6765E-002  
  751.50  6.7204E-002  
  752.00  6.7995E-002  
  752.50  6.8763E-002  
  753.00  6.9836E-002  
  753.50  7.0893E-002  
  754.00  7.2150E-002  
  754.50  7.3730E-002  
  755.00  7.4804E-002  
  755.50  7.5037E-002  
  756.00  7.5256E-002  
  756.50  7.6447E-002  
  757.00  7.7387E-002  
  757.50  7.7980E-002  
  758.00  7.8670E-002  
  758.50  8.0147E-002  
  759.00  8.1040E-002  
  759.50  8.1244E-002  
  760.00  8.2089E-002  
  760.50  8.3569E-002  
  761.00  8.4225E-002  
  761.50  8.4283E-002  
  762.00  8.4845E-002  
  762.50  8.5175E-002  
  763.00  8.4815E-002  
  763.50  8.4887E-002  
  764.00  8.5924E-002  
  764.50  8.6721E-002  
  765.00  8.8527E-002  
  765.50  9.0718E-002  
  766.00  9.1907E-002  
  766.50  9.1471E-002  
  767.00  9.2144E-002  
  767.50  9.3353E-002  
  768.00  9.3953E-002  
  768.50  9.4067E-002  
  769.00  9.4849E-002  
  769.50  9.5572E-002  
  770.00  9.6638E-002  
  770.50  9.6464E-002  
  771.00  9.6947E-002  
  771.50  9.7880E-002  
  772.00  9.9701E-002  
  772.50  1.0081E-001  
  773.00  1.0079E-001  
  773.50  1.0125E-001  
  774.00  1.0131E-001  
  774.50  1.0202E-001  
  775.00  1.0181E-001  
  775.50  1.0301E-001  
  776.00  1.0454E-001  
  776.50  1.0542E-001  
  777.00  1.0599E-001  
  777.50  1.0598E-001  
  778.00  1.0599E-001  
  778.50  1.0615E-001  
  779.00  1.0631E-001  
  779.50  1.0652E-001  
  780.00  1.0720E-001  
  780.50  1.0848E-001  
  781.00  1.0935E-001  
  781.50  1.1056E-001  
  782.00  1.1135E-001  
  782.50  1.1223E-001  
  783.00  1.1291E-001  
  783.50  1.1358E-001  
  784.00  1.1409E-001  
  784.50  1.1496E-001  
  785.00  1.1622E-001  
  785.50  1.1683E-001  
  786.00  1.1654E-001  
  786.50  1.1673E-001  
  787.00  1.1769E-001  
  787.50  1.1940E-001  
  788.00  1.1954E-001  
  788.50  1.1991E-001  
  789.00  1.1942E-001  
  789.50  1.1967E-001  
  790.00  1.2033E-001  
  790.50  1.2139E-001  
  791.00  1.2117E-001  
  791.50  1.2046E-001  
  792.00  1.2058E-001  
  792.50  1.2205E-001  
  793.00  1.2278E-001  
  793.50  1.2255E-001  
  794.00  1.2384E-001  
  794.50  1.2507E-001  
  795.00  1.2488E-001  
  795.50  1.2410E-001  
  796.00  1.2583E-001  
  796.50  1.2733E-001  
  797.00  1.2771E-001  
  797.50  1.2766E-001  
  798.00  1.2913E-001  
  798.50  1.2975E-001  
  799.00  1.2850E-001  
  799.50  1.2829E-001  
  800.00  1.2871E-001  
  800.50  1.3023E-001  
  801.00  1.2974E-001  
  801.50  1.2939E-001  
  802.00  1.2988E-001  
  802.50  1.3139E-001  
  803.00  1.3169E-001  
  803.50  1.3143E-001  
  804.00  1.3216E-001  
  804.50  1.3318E-001  
  805.00  1.3318E-001  
  805.50  1.3452E-001  
  806.00  1.3690E-001  
  806.50  1.3891E-001  
  807.00  1.3811E-001  
  807.50  1.3833E-001  
  808.00  1.3782E-001  
  808.50  1.3768E-001  
  809.00  1.3645E-001  
  809.50  1.3618E-001  
  810.00  1.3643E-001  
  810.50  1.3751E-001  
  811.00  1.3801E-001  
  811.50  1.3794E-001  
  812.00  1.3762E-001  
  812.50  1.3801E-001  
  813.00  1.3915E-001  
  813.50  1.4063E-001  
  814.00  1.4250E-001  
  814.50  1.4369E-001  
  815.00  1.4438E-001  
  815.50  1.4400E-001  
  816.00  1.4293E-001  
  816.50  1.4197E-001  
  817.00  1.4111E-001  
  817.50  1.4224E-001  
  818.00  1.4387E-001  
  818.50  1.4459E-001  
  819.00  1.4541E-001  
  819.50  1.4617E-001  
  820.00  1.4718E-001  
  820.50  1.4600E-001  
  821.00  1.4509E-001  
  821.50  1.4427E-001  
  822.00  1.4612E-001  
  822.50  1.4717E-001  
  823.00  1.4794E-001  
  823.50  1.4811E-001  
  824.00  1.4862E-001  
  824.50  1.4974E-001  
  825.00  1.5013E-001  
  825.50  1.4884E-001  
  826.00  1.4907E-001  
  826.50  1.4996E-001  
  827.00  1.5028E-001  
  827.50  1.4902E-001  
  828.00  1.4943E-001  
  828.50  1.4989E-001  
  829.00  1.5147E-001  
  829.50  1.4969E-001  
  830.00  1.4938E-001  
  830.50  1.5029E-001  
  831.00  1.5225E-001  
  831.50  1.5309E-001  
  832.00  1.5461E-001  
  832.50  1.5523E-001  
  833.00  1.5486E-001  
  833.50  1.5350E-001  
  834.00  1.5387E-001  
  834.50  1.5464E-001  
  835.00  1.5617E-001  
  835.50  1.5710E-001  
  836.00  1.5833E-001  
  836.50  1.5789E-001  
  837.00  1.5718E-001  
  837.50  1.5781E-001  
  838.00  1.5826E-001  
  838.50  1.5909E-001  
  839.00  1.5986E-001  
  839.50  1.5937E-001  
  840.00  1.5580E-001  
  840.50  1.5601E-001  
  841.00  1.5694E-001  
  841.50  1.5721E-001  
  842.00  1.5625E-001  
  842.50  1.5669E-001  
  843.00  1.5805E-001  
  843.50  1.6007E-001  
  844.00  1.6077E-001  
  844.50  1.6051E-001  
  845.00  1.6068E-001  
  845.50  1.6125E-001  
  846.00  1.6125E-001  
  846.50  1.6028E-001  
  847.00  1.5979E-001  
  847.50  1.6039E-001  
  848.00  1.6021E-001  
  848.50  1.6151E-001  
  849.00  1.6413E-001  
  849.50  1.6453E-001  
  850.00  1.6454E-001  
  850.50  1.6161E-001  
  851.00  1.6336E-001  
  851.50  1.6548E-001  
  852.00  1.6730E-001  
  852.50  1.6651E-001  
  853.00  1.6635E-001  
  853.50  1.6713E-001  
  854.00  1.6716E-001  
  854.50  1.6587E-001  
  855.00  1.6627E-001  
  855.50  1.6662E-001  
  856.00  1.6468E-001  
  856.50  1.6434E-001  
  857.00  1.6580E-001  
  857.50  1.6634E-001  
  858.00  1.6508E-001  
  858.50  1.6715E-001  
  859.00  1.6707E-001  
  859.50  1.6747E-001  
  860.00  1.6902E-001  
  860.50  1.7015E-001  
  861.00  1.6956E-001  
  861.50  1.6862E-001  
  862.00  1.6926E-001  
  862.50  1.7036E-001  
  863.00  1.7046E-001  
  863.50  1.6942E-001  
  864.00  1.6830E-001  
  864.50  1.6921E-001  
  865.00  1.7123E-001  
  865.50  1.7130E-001  
  866.00  1.7047E-001  
  866.50  1.6682E-001  
  867.00  1.6650E-001  
  867.50  1.6960E-001  
  868.00  1.7388E-001  
  868.50  1.7347E-001  
  869.00  1.7101E-001  
  869.50  1.7120E-001  
  870.00  1.7302E-001  
  870.50  1.7251E-001  
  871.00  1.7245E-001  
  871.50  1.7340E-001  
  872.00  1.7208E-001  
  872.50  1.7058E-001  
  873.00  1.7005E-001  
  873.50  1.7224E-001  
  874.00  1.7338E-001  
  874.50  1.7349E-001  
  875.00  1.7424E-001  
  875.50  1.7424E-001  
  876.00  1.7115E-001  
  876.50  1.7095E-001  
  877.00  1.7134E-001  
  877.50  1.7503E-001  
  878.00  1.7513E-001  
  878.50  1.7372E-001  
  879.00  1.7527E-001  
  879.50  1.8020E-001  
  880.00  1.8094E-001  
  880.50  1.8029E-001  
  881.00  1.7938E-001  
  881.50  1.7539E-001  
  882.00  1.7225E-001  
  882.50  1.7222E-001  
  883.00  1.7413E-001  
  883.50  1.7528E-001  
  884.00  1.7481E-001  
  884.50  1.7581E-001  
  885.00  1.7519E-001  
  885.50  1.7881E-001  
  886.00  1.8328E-001  
  886.50  1.8396E-001  
  887.00  1.8327E-001  
  887.50  1.7875E-001  
  888.00  1.8022E-001  
  888.50  1.8441E-001  
  889.00  1.8155E-001  
  889.50  1.7650E-001  
  890.00  1.7731E-001  
  890.50  1.7952E-001  
  891.00  1.8062E-001  
  891.50  1.8165E-001  
  892.00  1.8189E-001  
  892.50  1.8218E-001  
  893.00  1.8053E-001  
  893.50  1.7951E-001  
  894.00  1.7837E-001  
  894.50  1.7483E-001  
  895.00  1.7805E-001  
  895.50  1.8297E-001  
  896.00  1.8303E-001  
  896.50  1.7979E-001  
  897.00  1.7709E-001  
  897.50  1.8214E-001  
  898.00  1.8565E-001  
  898.50  1.8498E-001  
  899.00  1.8357E-001  
  899.50  3.6370E-003  
