
# From lspdd.org
# 
# Name: INC Standard PAR38 Domestique
# Indice spectral Valeur 
# MSI 0.28 
# SLI 0.48 
# IPI 1.01 
# Pourcentage de bleu 11.2 
# Caractéristique Valeur 
# CCT calculée (K) 2440 
# CCT du fabricant (K) 2600 
# Tension (V) 130 
# Puissance (W) 150.0 
# Efficacité lumineuse (Lum/W) ND 
#
# Image: '/app/system/img_2s/2756/medium_image2.jpg?1612236549'
# Image: '/app/system/img_1s/2756/medium_image1.jpg?1612236545'
# 

  273.00  0.0000E+000  
  273.50  0.0000E+000  
  274.00  0.0000E+000  
  274.50  0.0000E+000  
  275.00  0.0000E+000  
  275.50  0.0000E+000  
  276.00  0.0000E+000  
  276.50  0.0000E+000  
  277.00  0.0000E+000  
  277.50  0.0000E+000  
  278.00  0.0000E+000  
  278.50  0.0000E+000  
  279.00  0.0000E+000  
  279.50  0.0000E+000  
  280.00  0.0000E+000  
  280.50  0.0000E+000  
  281.00  0.0000E+000  
  281.50  0.0000E+000  
  282.00  0.0000E+000  
  282.50  0.0000E+000  
  283.00  0.0000E+000  
  283.50  0.0000E+000  
  284.00  0.0000E+000  
  284.50  0.0000E+000  
  285.00  0.0000E+000  
  285.50  0.0000E+000  
  286.00  0.0000E+000  
  286.50  0.0000E+000  
  287.00  0.0000E+000  
  287.50  0.0000E+000  
  288.00  0.0000E+000  
  288.50  0.0000E+000  
  289.00  0.0000E+000  
  289.50  0.0000E+000  
  290.00  0.0000E+000  
  290.50  0.0000E+000  
  291.00  0.0000E+000  
  291.50  0.0000E+000  
  292.00  0.0000E+000  
  292.50  0.0000E+000  
  293.00  0.0000E+000  
  293.50  0.0000E+000  
  294.00  0.0000E+000  
  294.50  0.0000E+000  
  295.00  0.0000E+000  
  295.50  0.0000E+000  
  296.00  0.0000E+000  
  296.50  0.0000E+000  
  297.00  0.0000E+000  
  297.50  0.0000E+000  
  298.00  0.0000E+000  
  298.50  0.0000E+000  
  299.00  0.0000E+000  
  299.50  0.0000E+000  
  300.00  1.9786E-005  
  300.50  7.5115E-005  
  301.00  1.9136E-004  
  301.50  2.2535E-004  
  302.00  3.1791E-004  
  302.50  2.4143E-004  
  303.00  0.0000E+000  
  303.50  0.0000E+000  
  304.00  0.0000E+000  
  304.50  1.1623E-004  
  305.00  4.9322E-004  
  305.50  6.9860E-004  
  306.00  5.8627E-004  
  306.50  6.9681E-004  
  307.00  8.0658E-004  
  307.50  1.0879E-003  
  308.00  1.0557E-003  
  308.50  8.9369E-004  
  309.00  8.5922E-004  
  309.50  8.2304E-004  
  310.00  8.0710E-004  
  310.50  8.1024E-004  
  311.00  4.4882E-004  
  311.50  3.8096E-004  
  312.00  4.4666E-004  
  312.50  4.9721E-004  
  313.00  9.3148E-004  
  313.50  9.7201E-004  
  314.00  1.1168E-003  
  314.50  1.1282E-003  
  315.00  9.0186E-004  
  315.50  7.7570E-004  
  316.00  4.2460E-004  
  316.50  3.8004E-004  
  317.00  4.8876E-004  
  317.50  6.6671E-004  
  318.00  1.2008E-003  
  318.50  1.3820E-003  
  319.00  1.2483E-003  
  319.50  8.8138E-004  
  320.00  3.8867E-004  
  320.50  3.5681E-004  
  321.00  7.1860E-004  
  321.50  1.1105E-003  
  322.00  1.1849E-003  
  322.50  8.1022E-004  
  323.00  5.1678E-004  
  323.50  7.3613E-004  
  324.00  9.6959E-004  
  324.50  1.3302E-003  
  325.00  1.5143E-003  
  325.50  1.2689E-003  
  326.00  1.1903E-003  
  326.50  1.1055E-003  
  327.00  9.7262E-004  
  327.50  1.0813E-003  
  328.00  1.1210E-003  
  328.50  8.3016E-004  
  329.00  6.8796E-004  
  329.50  8.4656E-004  
  330.00  1.0642E-003  
  330.50  1.4978E-003  
  331.00  1.6462E-003  
  331.50  1.6123E-003  
  332.00  1.4935E-003  
  332.50  1.5471E-003  
  333.00  1.7067E-003  
  333.50  1.4780E-003  
  334.00  1.5815E-003  
  334.50  1.8194E-003  
  335.00  1.8414E-003  
  335.50  2.0627E-003  
  336.00  1.8179E-003  
  336.50  1.4846E-003  
  337.00  1.3896E-003  
  337.50  1.4726E-003  
  338.00  1.8485E-003  
  338.50  2.0850E-003  
  339.00  2.0101E-003  
  339.50  1.3154E-003  
  340.00  8.0603E-004  
  340.50  5.9090E-004  
  341.00  1.0269E-003  
  341.50  1.5988E-003  
  342.00  1.6932E-003  
  342.50  1.4133E-003  
  343.00  9.4048E-004  
  343.50  6.2282E-004  
  344.00  6.4138E-004  
  344.50  9.6425E-004  
  345.00  1.4448E-003  
  345.50  2.1193E-003  
  346.00  2.6247E-003  
  346.50  2.9855E-003  
  347.00  2.8676E-003  
  347.50  2.5487E-003  
  348.00  2.1813E-003  
  348.50  1.9602E-003  
  349.00  1.9076E-003  
  349.50  1.8477E-003  
  350.00  1.8842E-003  
  350.50  1.9622E-003  
  351.00  2.2012E-003  
  351.50  2.5368E-003  
  352.00  2.8184E-003  
  352.50  2.7763E-003  
  353.00  2.7126E-003  
  353.50  2.5581E-003  
  354.00  2.1117E-003  
  354.50  1.9390E-003  
  355.00  1.7696E-003  
  355.50  1.6364E-003  
  356.00  1.8619E-003  
  356.50  2.1312E-003  
  357.00  2.3428E-003  
  357.50  2.5524E-003  
  358.00  2.6778E-003  
  358.50  2.6249E-003  
  359.00  2.7540E-003  
  359.50  2.7691E-003  
  360.00  2.8906E-003  
  360.50  2.6741E-003  
  361.00  2.5274E-003  
  361.50  2.1207E-003  
  362.00  2.0378E-003  
  362.50  2.3280E-003  
  363.00  2.7194E-003  
  363.50  3.0589E-003  
  364.00  3.0564E-003  
  364.50  2.9206E-003  
  365.00  2.6747E-003  
  365.50  2.6487E-003  
  366.00  2.7566E-003  
  366.50  2.7965E-003  
  367.00  2.7698E-003  
  367.50  2.7558E-003  
  368.00  2.8464E-003  
  368.50  3.0012E-003  
  369.00  3.2829E-003  
  369.50  3.3724E-003  
  370.00  3.3188E-003  
  370.50  3.1297E-003  
  371.00  2.9791E-003  
  371.50  2.9998E-003  
  372.00  3.3465E-003  
  372.50  3.7807E-003  
  373.00  3.8703E-003  
  373.50  3.8722E-003  
  374.00  3.6552E-003  
  374.50  3.5710E-003  
  375.00  3.5482E-003  
  375.50  3.7328E-003  
  376.00  4.0738E-003  
  376.50  4.3626E-003  
  377.00  4.6307E-003  
  377.50  4.6532E-003  
  378.00  4.5790E-003  
  378.50  4.5073E-003  
  379.00  4.4589E-003  
  379.50  4.4052E-003  
  380.00  4.3974E-003  
  380.50  4.0362E-003  
  381.00  3.8622E-003  
  381.50  3.7622E-003  
  382.00  3.8230E-003  
  382.50  4.0463E-003  
  383.00  4.1876E-003  
  383.50  4.3544E-003  
  384.00  4.4352E-003  
  384.50  4.5370E-003  
  385.00  4.5403E-003  
  385.50  4.8542E-003  
  386.00  5.1538E-003  
  386.50  5.3864E-003  
  387.00  5.0913E-003  
  387.50  4.8071E-003  
  388.00  4.6884E-003  
  388.50  4.7983E-003  
  389.00  5.0348E-003  
  389.50  5.2161E-003  
  390.00  5.3447E-003  
  390.50  5.5062E-003  
  391.00  5.6913E-003  
  391.50  5.8144E-003  
  392.00  6.0466E-003  
  392.50  6.2721E-003  
  393.00  6.4407E-003  
  393.50  6.4285E-003  
  394.00  6.4675E-003  
  394.50  6.5725E-003  
  395.00  6.4372E-003  
  395.50  6.3070E-003  
  396.00  6.2652E-003  
  396.50  6.0339E-003  
  397.00  6.2224E-003  
  397.50  6.4396E-003  
  398.00  6.5277E-003  
  398.50  6.9281E-003  
  399.00  7.2246E-003  
  399.50  7.5204E-003  
  400.00  7.4668E-003  
  400.50  7.3593E-003  
  401.00  7.1425E-003  
  401.50  7.1102E-003  
  402.00  7.1743E-003  
  402.50  7.3511E-003  
  403.00  7.6911E-003  
  403.50  7.9474E-003  
  404.00  8.0098E-003  
  404.50  7.8611E-003  
  405.00  7.7870E-003  
  405.50  8.0609E-003  
  406.00  8.3518E-003  
  406.50  8.4104E-003  
  407.00  8.3146E-003  
  407.50  8.4612E-003  
  408.00  8.6034E-003  
  408.50  8.8651E-003  
  409.00  8.8968E-003  
  409.50  8.9258E-003  
  410.00  9.0787E-003  
  410.50  9.0524E-003  
  411.00  9.0229E-003  
  411.50  8.8613E-003  
  412.00  8.7421E-003  
  412.50  8.9470E-003  
  413.00  9.2211E-003  
  413.50  9.6949E-003  
  414.00  1.0216E-002  
  414.50  1.0648E-002  
  415.00  1.0774E-002  
  415.50  1.0721E-002  
  416.00  1.0469E-002  
  416.50  1.0082E-002  
  417.00  1.0221E-002  
  417.50  1.0386E-002  
  418.00  1.0721E-002  
  418.50  1.0872E-002  
  419.00  1.0907E-002  
  419.50  1.1026E-002  
  420.00  1.1028E-002  
  420.50  1.1197E-002  
  421.00  1.1105E-002  
  421.50  1.0988E-002  
  422.00  1.1286E-002  
  422.50  1.1605E-002  
  423.00  1.2034E-002  
  423.50  1.2130E-002  
  424.00  1.2157E-002  
  424.50  1.2300E-002  
  425.00  1.2358E-002  
  425.50  1.2771E-002  
  426.00  1.2823E-002  
  426.50  1.2854E-002  
  427.00  1.2552E-002  
  427.50  1.2242E-002  
  428.00  1.2023E-002  
  428.50  1.2358E-002  
  429.00  1.2698E-002  
  429.50  1.2994E-002  
  430.00  1.3277E-002  
  430.50  1.3065E-002  
  431.00  1.3108E-002  
  431.50  1.2905E-002  
  432.00  1.3035E-002  
  432.50  1.3468E-002  
  433.00  1.3760E-002  
  433.50  1.4425E-002  
  434.00  1.4852E-002  
  434.50  1.4965E-002  
  435.00  1.4873E-002  
  435.50  1.4820E-002  
  436.00  1.5119E-002  
  436.50  1.5584E-002  
  437.00  1.5743E-002  
  437.50  1.5805E-002  
  438.00  1.5760E-002  
  438.50  1.5895E-002  
  439.00  1.5939E-002  
  439.50  1.6088E-002  
  440.00  1.6419E-002  
  440.50  1.6727E-002  
  441.00  1.6877E-002  
  441.50  1.6910E-002  
  442.00  1.7073E-002  
  442.50  1.7448E-002  
  443.00  1.7898E-002  
  443.50  1.8048E-002  
  444.00  1.7716E-002  
  444.50  1.7536E-002  
  445.00  1.7584E-002  
  445.50  1.7955E-002  
  446.00  1.8384E-002  
  446.50  1.8601E-002  
  447.00  1.8893E-002  
  447.50  1.9273E-002  
  448.00  1.9601E-002  
  448.50  1.9886E-002  
  449.00  1.9888E-002  
  449.50  1.9945E-002  
  450.00  1.9825E-002  
  450.50  1.9667E-002  
  451.00  1.9649E-002  
  451.50  1.9861E-002  
  452.00  2.0146E-002  
  452.50  2.0501E-002  
  453.00  2.0623E-002  
  453.50  2.0540E-002  
  454.00  2.0529E-002  
  454.50  2.0642E-002  
  455.00  2.1178E-002  
  455.50  2.1671E-002  
  456.00  2.2109E-002  
  456.50  2.2199E-002  
  457.00  2.2378E-002  
  457.50  2.2431E-002  
  458.00  2.2565E-002  
  458.50  2.2919E-002  
  459.00  2.3248E-002  
  459.50  2.3524E-002  
  460.00  2.3539E-002  
  460.50  2.3777E-002  
  461.00  2.4084E-002  
  461.50  2.4438E-002  
  462.00  2.4700E-002  
  462.50  2.4931E-002  
  463.00  2.5343E-002  
  463.50  2.5654E-002  
  464.00  2.5962E-002  
  464.50  2.6115E-002  
  465.00  2.6368E-002  
  465.50  2.6581E-002  
  466.00  2.6816E-002  
  466.50  2.6944E-002  
  467.00  2.7293E-002  
  467.50  2.7501E-002  
  468.00  2.7617E-002  
  468.50  2.7835E-002  
  469.00  2.7985E-002  
  469.50  2.8387E-002  
  470.00  2.8802E-002  
  470.50  2.9150E-002  
  471.00  2.9420E-002  
  471.50  2.9434E-002  
  472.00  2.9358E-002  
  472.50  2.9328E-002  
  473.00  2.9495E-002  
  473.50  3.0091E-002  
  474.00  3.0749E-002  
  474.50  3.1429E-002  
  475.00  3.1520E-002  
  475.50  3.1431E-002  
  476.00  3.1240E-002  
  476.50  3.1187E-002  
  477.00  3.1392E-002  
  477.50  3.1604E-002  
  478.00  3.1796E-002  
  478.50  3.1931E-002  
  479.00  3.2404E-002  
  479.50  3.2668E-002  
  480.00  3.3187E-002  
  480.50  3.3318E-002  
  481.00  3.3167E-002  
  481.50  3.3225E-002  
  482.00  3.3400E-002  
  482.50  3.3775E-002  
  483.00  3.4087E-002  
  483.50  3.4380E-002  
  484.00  3.4609E-002  
  484.50  3.4735E-002  
  485.00  3.4826E-002  
  485.50  3.4809E-002  
  486.00  3.4934E-002  
  486.50  3.5295E-002  
  487.00  3.5569E-002  
  487.50  3.5739E-002  
  488.00  3.5698E-002  
  488.50  3.5552E-002  
  489.00  3.5501E-002  
  489.50  3.5525E-002  
  490.00  3.5924E-002  
  490.50  3.6264E-002  
  491.00  3.6648E-002  
  491.50  3.6880E-002  
  492.00  3.7172E-002  
  492.50  3.7446E-002  
  493.00  3.7509E-002  
  493.50  3.7437E-002  
  494.00  3.7134E-002  
  494.50  3.6998E-002  
  495.00  3.7102E-002  
  495.50  3.7438E-002  
  496.00  3.7920E-002  
  496.50  3.8249E-002  
  497.00  3.8621E-002  
  497.50  3.8765E-002  
  498.00  3.8824E-002  
  498.50  3.8757E-002  
  499.00  3.8678E-002  
  499.50  3.8871E-002  
  500.00  3.9088E-002  
  500.50  3.9401E-002  
  501.00  3.9757E-002  
  501.50  4.0148E-002  
  502.00  4.0521E-002  
  502.50  4.0809E-002  
  503.00  4.1086E-002  
  503.50  4.1401E-002  
  504.00  4.1651E-002  
  504.50  4.1834E-002  
  505.00  4.1867E-002  
  505.50  4.1998E-002  
  506.00  4.2266E-002  
  506.50  4.2808E-002  
  507.00  4.3120E-002  
  507.50  4.3452E-002  
  508.00  4.3637E-002  
  508.50  4.3839E-002  
  509.00  4.4123E-002  
  509.50  4.4275E-002  
  510.00  4.4593E-002  
  510.50  4.4957E-002  
  511.00  4.5500E-002  
  511.50  4.5693E-002  
  512.00  4.5854E-002  
  512.50  4.5926E-002  
  513.00  4.6158E-002  
  513.50  4.6445E-002  
  514.00  4.6757E-002  
  514.50  4.7220E-002  
  515.00  4.7700E-002  
  515.50  4.8091E-002  
  516.00  4.8202E-002  
  516.50  4.8267E-002  
  517.00  4.8616E-002  
  517.50  4.9058E-002  
  518.00  4.9652E-002  
  518.50  5.0132E-002  
  519.00  5.0393E-002  
  519.50  5.0677E-002  
  520.00  5.0917E-002  
  520.50  5.1276E-002  
  521.00  5.1744E-002  
  521.50  5.2024E-002  
  522.00  5.2121E-002  
  522.50  5.2206E-002  
  523.00  5.2350E-002  
  523.50  5.2672E-002  
  524.00  5.3058E-002  
  524.50  5.3364E-002  
  525.00  5.3709E-002  
  525.50  5.4116E-002  
  526.00  5.4760E-002  
  526.50  5.5396E-002  
  527.00  5.6106E-002  
  527.50  5.6429E-002  
  528.00  5.6643E-002  
  528.50  5.7066E-002  
  529.00  5.7388E-002  
  529.50  5.7679E-002  
  530.00  5.8021E-002  
  530.50  5.8472E-002  
  531.00  5.9208E-002  
  531.50  5.9790E-002  
  532.00  6.0170E-002  
  532.50  6.0477E-002  
  533.00  6.0615E-002  
  533.50  6.0852E-002  
  534.00  6.1328E-002  
  534.50  6.2006E-002  
  535.00  6.2596E-002  
  535.50  6.2835E-002  
  536.00  6.2927E-002  
  536.50  6.3194E-002  
  537.00  6.3704E-002  
  537.50  6.4396E-002  
  538.00  6.4976E-002  
  538.50  6.5402E-002  
  539.00  6.5642E-002  
  539.50  6.5854E-002  
  540.00  6.6401E-002  
  540.50  6.7010E-002  
  541.00  6.7719E-002  
  541.50  6.8213E-002  
  542.00  6.8690E-002  
  542.50  6.9082E-002  
  543.00  6.9711E-002  
  543.50  7.0346E-002  
  544.00  7.0788E-002  
  544.50  7.1225E-002  
  545.00  7.1599E-002  
  545.50  7.2200E-002  
  546.00  7.2479E-002  
  546.50  7.2627E-002  
  547.00  7.2795E-002  
  547.50  7.3098E-002  
  548.00  7.3715E-002  
  548.50  7.4482E-002  
  549.00  7.5127E-002  
  549.50  7.5749E-002  
  550.00  7.6161E-002  
  550.50  7.6661E-002  
  551.00  7.7258E-002  
  551.50  7.7752E-002  
  552.00  7.8026E-002  
  552.50  7.8234E-002  
  553.00  7.8575E-002  
  553.50  7.9266E-002  
  554.00  7.9932E-002  
  554.50  8.0510E-002  
  555.00  8.0928E-002  
  555.50  8.1303E-002  
  556.00  8.1726E-002  
  556.50  8.2118E-002  
  557.00  8.2432E-002  
  557.50  8.3018E-002  
  558.00  8.3690E-002  
  558.50  8.4414E-002  
  559.00  8.5145E-002  
  559.50  8.5670E-002  
  560.00  8.6179E-002  
  560.50  8.6470E-002  
  561.00  8.6994E-002  
  561.50  8.7631E-002  
  562.00  8.7995E-002  
  562.50  8.8402E-002  
  563.00  8.8949E-002  
  563.50  8.9679E-002  
  564.00  9.0513E-002  
  564.50  9.1234E-002  
  565.00  9.1783E-002  
  565.50  9.2292E-002  
  566.00  9.2306E-002  
  566.50  9.2495E-002  
  567.00  9.2631E-002  
  567.50  9.3120E-002  
  568.00  9.3642E-002  
  568.50  9.4352E-002  
  569.00  9.5085E-002  
  569.50  9.5594E-002  
  570.00  9.6003E-002  
  570.50  9.6433E-002  
  571.00  9.6680E-002  
  571.50  9.7028E-002  
  572.00  9.7252E-002  
  572.50  9.7577E-002  
  573.00  9.8235E-002  
  573.50  9.8843E-002  
  574.00  9.9656E-002  
  574.50  1.0030E-001  
  575.00  1.0082E-001  
  575.50  1.0110E-001  
  576.00  1.0167E-001  
  576.50  1.0218E-001  
  577.00  1.0280E-001  
  577.50  1.0297E-001  
  578.00  1.0313E-001  
  578.50  1.0378E-001  
  579.00  1.0468E-001  
  579.50  1.0549E-001  
  580.00  1.0631E-001  
  580.50  1.0654E-001  
  581.00  1.0673E-001  
  581.50  1.0662E-001  
  582.00  1.0672E-001  
  582.50  1.0708E-001  
  583.00  1.0770E-001  
  583.50  1.0833E-001  
  584.00  1.0869E-001  
  584.50  1.0891E-001  
  585.00  1.0938E-001  
  585.50  1.1016E-001  
  586.00  1.1118E-001  
  586.50  1.1153E-001  
  587.00  1.1151E-001  
  587.50  1.1164E-001  
  588.00  1.1206E-001  
  588.50  1.1325E-001  
  589.00  1.1409E-001  
  589.50  1.1495E-001  
  590.00  1.1533E-001  
  590.50  1.1587E-001  
  591.00  1.1651E-001  
  591.50  1.1740E-001  
  592.00  1.1784E-001  
  592.50  1.1786E-001  
  593.00  1.1785E-001  
  593.50  1.1817E-001  
  594.00  1.1908E-001  
  594.50  1.1960E-001  
  595.00  1.1989E-001  
  595.50  1.2007E-001  
  596.00  1.2052E-001  
  596.50  1.2112E-001  
  597.00  1.2161E-001  
  597.50  1.2199E-001  
  598.00  1.2266E-001  
  598.50  1.2317E-001  
  599.00  1.2368E-001  
  599.50  1.2410E-001  
  600.00  1.2423E-001  
  600.50  1.2433E-001  
  601.00  1.2457E-001  
  601.50  1.2488E-001  
  602.00  1.2549E-001  
  602.50  1.2600E-001  
  603.00  1.2675E-001  
  603.50  1.2719E-001  
  604.00  1.2771E-001  
  604.50  1.2808E-001  
  605.00  1.2861E-001  
  605.50  1.2917E-001  
  606.00  1.2903E-001  
  606.50  1.2924E-001  
  607.00  1.2974E-001  
  607.50  1.3072E-001  
  608.00  1.3130E-001  
  608.50  1.3146E-001  
  609.00  1.3152E-001  
  609.50  1.3179E-001  
  610.00  1.3225E-001  
  610.50  1.3267E-001  
  611.00  1.3315E-001  
  611.50  1.3340E-001  
  612.00  1.3364E-001  
  612.50  1.3396E-001  
  613.00  1.3436E-001  
  613.50  1.3490E-001  
  614.00  1.3550E-001  
  614.50  1.3629E-001  
  615.00  1.3681E-001  
  615.50  1.3715E-001  
  616.00  1.3734E-001  
  616.50  1.3786E-001  
  617.00  1.3842E-001  
  617.50  1.3871E-001  
  618.00  1.3879E-001  
  618.50  1.3884E-001  
  619.00  1.3936E-001  
  619.50  1.3996E-001  
  620.00  1.4063E-001  
  620.50  1.4080E-001  
  621.00  1.4083E-001  
  621.50  1.4067E-001  
  622.00  1.4107E-001  
  622.50  1.4164E-001  
  623.00  1.4232E-001  
  623.50  1.4255E-001  
  624.00  1.4246E-001  
  624.50  1.4241E-001  
  625.00  1.4259E-001  
  625.50  1.4283E-001  
  626.00  1.4300E-001  
  626.50  1.4327E-001  
  627.00  1.4368E-001  
  627.50  1.4432E-001  
  628.00  1.4507E-001  
  628.50  1.4582E-001  
  629.00  1.4626E-001  
  629.50  1.4656E-001  
  630.00  1.4717E-001  
  630.50  1.4792E-001  
  631.00  1.4847E-001  
  631.50  1.4902E-001  
  632.00  1.4934E-001  
  632.50  1.4958E-001  
  633.00  1.4939E-001  
  633.50  1.4925E-001  
  634.00  1.4979E-001  
  634.50  1.5075E-001  
  635.00  1.5142E-001  
  635.50  1.5150E-001  
  636.00  1.5120E-001  
  636.50  1.5160E-001  
  637.00  1.5225E-001  
  637.50  1.5304E-001  
  638.00  1.5327E-001  
  638.50  1.5363E-001  
  639.00  1.5397E-001  
  639.50  1.5436E-001  
  640.00  1.5436E-001  
  640.50  1.5476E-001  
  641.00  1.5555E-001  
  641.50  1.5631E-001  
  642.00  1.5646E-001  
  642.50  1.5639E-001  
  643.00  1.5674E-001  
  643.50  1.5724E-001  
  644.00  1.5765E-001  
  644.50  1.5802E-001  
  645.00  1.5871E-001  
  645.50  1.5931E-001  
  646.00  1.5966E-001  
  646.50  1.5957E-001  
  647.00  1.5973E-001  
  647.50  1.5967E-001  
  648.00  1.5986E-001  
  648.50  1.6007E-001  
  649.00  1.6057E-001  
  649.50  1.6058E-001  
  650.00  1.6048E-001  
  650.50  1.6087E-001  
  651.00  1.6189E-001  
  651.50  1.6249E-001  
  652.00  1.6283E-001  
  652.50  1.6278E-001  
  653.00  1.6306E-001  
  653.50  1.6303E-001  
  654.00  1.6359E-001  
  654.50  1.6415E-001  
  655.00  1.6484E-001  
  655.50  1.6527E-001  
  656.00  1.6528E-001  
  656.50  1.6515E-001  
  657.00  1.6502E-001  
  657.50  1.6521E-001  
  658.00  1.6596E-001  
  658.50  1.6648E-001  
  659.00  1.6730E-001  
  659.50  1.6750E-001  
  660.00  1.6826E-001  
  660.50  1.6842E-001  
  661.00  1.6877E-001  
  661.50  1.6860E-001  
  662.00  1.6872E-001  
  662.50  1.6913E-001  
  663.00  1.6949E-001  
  663.50  1.6986E-001  
  664.00  1.7006E-001  
  664.50  1.7026E-001  
  665.00  1.7025E-001  
  665.50  1.6977E-001  
  666.00  1.6932E-001  
  666.50  1.6970E-001  
  667.00  1.7046E-001  
  667.50  1.7120E-001  
  668.00  1.7137E-001  
  668.50  1.7179E-001  
  669.00  1.7234E-001  
  669.50  1.7252E-001  
  670.00  1.7244E-001  
  670.50  1.7243E-001  
  671.00  1.7278E-001  
  671.50  1.7319E-001  
  672.00  1.7337E-001  
  672.50  1.7373E-001  
  673.00  1.7366E-001  
  673.50  1.7388E-001  
  674.00  1.7347E-001  
  674.50  1.7320E-001  
  675.00  1.7268E-001  
  675.50  1.7308E-001  
  676.00  1.7353E-001  
  676.50  1.7409E-001  
  677.00  1.7415E-001  
  677.50  1.7432E-001  
  678.00  1.7451E-001  
  678.50  1.7470E-001  
  679.00  1.7527E-001  
  679.50  1.7551E-001  
  680.00  1.7597E-001  
  680.50  1.7639E-001  
  681.00  1.7638E-001  
  681.50  1.7600E-001  
  682.00  1.7551E-001  
  682.50  1.7579E-001  
  683.00  1.7601E-001  
  683.50  1.7607E-001  
  684.00  1.7623E-001  
  684.50  1.7682E-001  
  685.00  1.7700E-001  
  685.50  1.7728E-001  
  686.00  1.7730E-001  
  686.50  1.7779E-001  
  687.00  1.7802E-001  
  687.50  1.7837E-001  
  688.00  1.7867E-001  
  688.50  1.7837E-001  
  689.00  1.7804E-001  
  689.50  1.7801E-001  
  690.00  1.7909E-001  
  690.50  1.7978E-001  
  691.00  1.7962E-001  
  691.50  1.7885E-001  
  692.00  1.7856E-001  
  692.50  1.7885E-001  
  693.00  1.7961E-001  
  693.50  1.8031E-001  
  694.00  1.8058E-001  
  694.50  1.8038E-001  
  695.00  1.8059E-001  
  695.50  1.8087E-001  
  696.00  1.8076E-001  
  696.50  1.8139E-001  
  697.00  1.8183E-001  
  697.50  1.8266E-001  
  698.00  1.8282E-001  
  698.50  1.8287E-001  
  699.00  1.8248E-001  
  699.50  1.8166E-001  
  700.00  1.8175E-001  
  700.50  1.8163E-001  
  701.00  1.8226E-001  
  701.50  1.8288E-001  
  702.00  1.8280E-001  
  702.50  1.8334E-001  
  703.00  1.8415E-001  
  703.50  1.8573E-001  
  704.00  1.8596E-001  
  704.50  1.8642E-001  
  705.00  1.8653E-001  
  705.50  1.8625E-001  
  706.00  1.8554E-001  
  706.50  1.8514E-001  
  707.00  1.8522E-001  
  707.50  1.8617E-001  
  708.00  1.8702E-001  
  708.50  1.8736E-001  
  709.00  1.8668E-001  
  709.50  1.8630E-001  
  710.00  1.8608E-001  
  710.50  1.8578E-001  
  711.00  1.8649E-001  
  711.50  1.8723E-001  
  712.00  1.8812E-001  
  712.50  1.8787E-001  
  713.00  1.8783E-001  
  713.50  1.8806E-001  
  714.00  1.8883E-001  
  714.50  1.8903E-001  
  715.00  1.8854E-001  
  715.50  1.8780E-001  
  716.00  1.8746E-001  
  716.50  1.8768E-001  
  717.00  1.8802E-001  
  717.50  1.8933E-001  
  718.00  1.8974E-001  
  718.50  1.8984E-001  
  719.00  1.8980E-001  
  719.50  1.9040E-001  
  720.00  1.9082E-001  
  720.50  1.9078E-001  
  721.00  1.9026E-001  
  721.50  1.9018E-001  
  722.00  1.9030E-001  
  722.50  1.9083E-001  
  723.00  1.9091E-001  
  723.50  1.9138E-001  
  724.00  1.9252E-001  
  724.50  1.9295E-001  
  725.00  1.9266E-001  
  725.50  1.9242E-001  
  726.00  1.9244E-001  
  726.50  1.9245E-001  
  727.00  1.9255E-001  
  727.50  1.9319E-001  
  728.00  1.9393E-001  
  728.50  1.9400E-001  
  729.00  1.9379E-001  
  729.50  1.9388E-001  
  730.00  1.9403E-001  
  730.50  1.9420E-001  
  731.00  1.9397E-001  
  731.50  1.9447E-001  
  732.00  1.9530E-001  
  732.50  1.9578E-001  
  733.00  1.9567E-001  
  733.50  1.9552E-001  
  734.00  1.9572E-001  
  734.50  1.9638E-001  
  735.00  1.9668E-001  
  735.50  1.9580E-001  
  736.00  1.9534E-001  
  736.50  1.9536E-001  
  737.00  1.9635E-001  
  737.50  1.9716E-001  
  738.00  1.9820E-001  
  738.50  1.9859E-001  
  739.00  1.9882E-001  
  739.50  1.9872E-001  
  740.00  1.9838E-001  
  740.50  1.9745E-001  
  741.00  1.9793E-001  
  741.50  1.9886E-001  
  742.00  1.9865E-001  
  742.50  1.9783E-001  
  743.00  1.9749E-001  
  743.50  1.9788E-001  
  744.00  1.9868E-001  
  744.50  1.9945E-001  
  745.00  2.0004E-001  
  745.50  1.9958E-001  
  746.00  1.9936E-001  
  746.50  1.9977E-001  
  747.00  2.0046E-001  
  747.50  2.0134E-001  
  748.00  2.0177E-001  
  748.50  2.0163E-001  
  749.00  2.0127E-001  
  749.50  2.0134E-001  
  750.00  2.0181E-001  
  750.50  2.0253E-001  
  751.00  2.0345E-001  
  751.50  2.0380E-001  
  752.00  2.0401E-001  
  752.50  2.0449E-001  
  753.00  2.0375E-001  
  753.50  2.0232E-001  
  754.00  2.0191E-001  
  754.50  2.0262E-001  
  755.00  2.0226E-001  
  755.50  2.0220E-001  
  756.00  2.0337E-001  
  756.50  2.0487E-001  
  757.00  2.0569E-001  
  757.50  2.0575E-001  
  758.00  2.0622E-001  
  758.50  2.0570E-001  
  759.00  2.0496E-001  
  759.50  2.0434E-001  
  760.00  2.0490E-001  
  760.50  2.0609E-001  
  761.00  2.0652E-001  
  761.50  2.0625E-001  
  762.00  2.0575E-001  
  762.50  2.0478E-001  
  763.00  2.0461E-001  
  763.50  2.0533E-001  
  764.00  2.0567E-001  
  764.50  2.0537E-001  
  765.00  2.0560E-001  
  765.50  2.0664E-001  
  766.00  2.0808E-001  
  766.50  2.0874E-001  
  767.00  2.0944E-001  
  767.50  2.1043E-001  
  768.00  2.1089E-001  
  768.50  2.1015E-001  
  769.00  2.1033E-001  
  769.50  2.1147E-001  
  770.00  2.1145E-001  
  770.50  2.1031E-001  
  771.00  2.0977E-001  
  771.50  2.0950E-001  
  772.00  2.1011E-001  
  772.50  2.1124E-001  
  773.00  2.1143E-001  
  773.50  2.1101E-001  
  774.00  2.0976E-001  
  774.50  2.0898E-001  
  775.00  2.0855E-001  
  775.50  2.0937E-001  
  776.00  2.1043E-001  
  776.50  2.1122E-001  
  777.00  2.1153E-001  
  777.50  2.1159E-001  
  778.00  2.1213E-001  
  778.50  2.1171E-001  
  779.00  2.1085E-001  
  779.50  2.0990E-001  
  780.00  2.1078E-001  
  780.50  2.1292E-001  
  781.00  2.1343E-001  
  781.50  2.1282E-001  
  782.00  2.1104E-001  
  782.50  2.1105E-001  
  783.00  2.1293E-001  
  783.50  2.1413E-001  
  784.00  2.1446E-001  
  784.50  2.1390E-001  
  785.00  2.1427E-001  
  785.50  2.1460E-001  
  786.00  2.1469E-001  
  786.50  2.1412E-001  
  787.00  2.1421E-001  
  787.50  2.1481E-001  
  788.00  2.1447E-001  
  788.50  2.1416E-001  
  789.00  2.1537E-001  
  789.50  2.1726E-001  
  790.00  2.1744E-001  
  790.50  2.1736E-001  
  791.00  2.1756E-001  
  791.50  2.1812E-001  
  792.00  2.1883E-001  
  792.50  2.1952E-001  
  793.00  2.1900E-001  
  793.50  2.1900E-001  
  794.00  2.1884E-001  
  794.50  2.1873E-001  
  795.00  2.1902E-001  
  795.50  2.2001E-001  
  796.00  2.2041E-001  
  796.50  2.2108E-001  
  797.00  2.2238E-001  
  797.50  2.2307E-001  
  798.00  2.2291E-001  
  798.50  2.2345E-001  
  799.00  2.2366E-001  
  799.50  2.2241E-001  
  800.00  2.2078E-001  
  800.50  2.2091E-001  
  801.00  2.2153E-001  
  801.50  2.2100E-001  
  802.00  2.1937E-001  
  802.50  2.1932E-001  
  803.00  2.2120E-001  
  803.50  2.2331E-001  
  804.00  2.2409E-001  
  804.50  2.2245E-001  
  805.00  2.2133E-001  
  805.50  2.2144E-001  
  806.00  2.2385E-001  
  806.50  2.2388E-001  
  807.00  2.2337E-001  
  807.50  2.2246E-001  
  808.00  2.2356E-001  
  808.50  2.2404E-001  
  809.00  2.2522E-001  
  809.50  2.2625E-001  
  810.00  2.2627E-001  
  810.50  2.2515E-001  
  811.00  2.2682E-001  
  811.50  2.2889E-001  
  812.00  2.2864E-001  
  812.50  2.2697E-001  
  813.00  2.2685E-001  
  813.50  2.2775E-001  
  814.00  2.2774E-001  
  814.50  2.2667E-001  
  815.00  2.2677E-001  
  815.50  2.2710E-001  
  816.00  2.2689E-001  
  816.50  2.2727E-001  
  817.00  2.2891E-001  
  817.50  2.2932E-001  
  818.00  2.2942E-001  
  818.50  2.2889E-001  
  819.00  2.2841E-001  
  819.50  2.2960E-001  
  820.00  2.3266E-001  
  820.50  2.3424E-001  
  821.00  2.3356E-001  
  821.50  2.3236E-001  
  822.00  2.3216E-001  
  822.50  2.3243E-001  
  823.00  2.3196E-001  
  823.50  2.3236E-001  
  824.00  2.3204E-001  
  824.50  2.3072E-001  
  825.00  2.3061E-001  
  825.50  2.3217E-001  
  826.00  2.3202E-001  
  826.50  2.3270E-001  
  827.00  2.3356E-001  
  827.50  2.3337E-001  
  828.00  2.3215E-001  
  828.50  2.3187E-001  
  829.00  2.3404E-001  
  829.50  2.3629E-001  
  830.00  2.3679E-001  
  830.50  2.3765E-001  
  831.00  2.3856E-001  
  831.50  2.3828E-001  
  832.00  2.3677E-001  
  832.50  2.3616E-001  
  833.00  2.3540E-001  
  833.50  2.3393E-001  
  834.00  2.3471E-001  
  834.50  2.3588E-001  
  835.00  2.3628E-001  
  835.50  2.3813E-001  
  836.00  2.3916E-001  
  836.50  2.3842E-001  
  837.00  2.3741E-001  
  837.50  2.3927E-001  
  838.00  2.3926E-001  
  838.50  2.3754E-001  
  839.00  2.3689E-001  
  839.50  2.3714E-001  
  840.00  2.3749E-001  
  840.50  2.4078E-001  
  841.00  2.4302E-001  
  841.50  2.4271E-001  
  842.00  2.3925E-001  
  842.50  2.3589E-001  
  843.00  2.3414E-001  
  843.50  2.3613E-001  
  844.00  2.3946E-001  
  844.50  2.4119E-001  
  845.00  2.4271E-001  
  845.50  2.4146E-001  
  846.00  2.3879E-001  
  846.50  2.3793E-001  
  847.00  2.4014E-001  
  847.50  2.4219E-001  
  848.00  2.4386E-001  
  848.50  2.4391E-001  
  849.00  2.4120E-001  
  849.50  2.3953E-001  
  850.00  2.4187E-001  
  850.50  2.4485E-001  
  851.00  2.4620E-001  
  851.50  2.4383E-001  
  852.00  2.4490E-001  
  852.50  2.4514E-001  
  853.00  2.4360E-001  
  853.50  2.4399E-001  
  854.00  2.4678E-001  
  854.50  2.4897E-001  
  855.00  2.5080E-001  
  855.50  2.5017E-001  
  856.00  2.4785E-001  
  856.50  2.4782E-001  
  857.00  2.4919E-001  
  857.50  2.4943E-001  
  858.00  2.4935E-001  
  858.50  2.5121E-001  
  859.00  2.5323E-001  
  859.50  2.5140E-001  
  860.00  2.5199E-001  
  860.50  2.5415E-001  
  861.00  2.5518E-001  
  861.50  2.5216E-001  
  862.00  2.4921E-001  
  862.50  2.4872E-001  
  863.00  2.4862E-001  
  863.50  2.4750E-001  
  864.00  2.4871E-001  
  864.50  2.4870E-001  
  865.00  2.4890E-001  
  865.50  2.5026E-001  
  866.00  2.5094E-001  
  866.50  2.4902E-001  
  867.00  2.4826E-001  
  867.50  2.5058E-001  
  868.00  2.5594E-001  
  868.50  2.5917E-001  
  869.00  2.5922E-001  
  869.50  2.5880E-001  
  870.00  2.5895E-001  
  870.50  2.5655E-001  
  871.00  2.5385E-001  
  871.50  2.5664E-001  
  872.00  2.5630E-001  
  872.50  2.5403E-001  
  873.00  2.5252E-001  
  873.50  2.5324E-001  
  874.00  2.5640E-001  
  874.50  2.6015E-001  
  875.00  2.6133E-001  
  875.50  2.5588E-001  
  876.00  2.5483E-001  
  876.50  2.5906E-001  
  877.00  2.6115E-001  
  877.50  2.6058E-001  
  878.00  2.5717E-001  
  878.50  2.5407E-001  
  879.00  2.5807E-001  
  879.50  2.6631E-001  
  880.00  2.6949E-001  
  880.50  2.6974E-001  
  881.00  2.6751E-001  
  881.50  2.6342E-001  
  882.00  2.5891E-001  
  882.50  2.5681E-001  
  883.00  2.5494E-001  
  883.50  2.5768E-001  
  884.00  2.5946E-001  
  884.50  2.6314E-001  
  885.00  2.6616E-001  
  885.50  2.6730E-001  
  886.00  2.6712E-001  
  886.50  2.6498E-001  
  887.00  2.6204E-001  
  887.50  2.6177E-001  
  888.00  2.6466E-001  
  888.50  2.6521E-001  
  889.00  2.6124E-001  
  889.50  2.6312E-001  
  890.00  2.6550E-001  
  890.50  2.6577E-001  
  891.00  2.6275E-001  
  891.50  2.6225E-001  
  892.00  2.6580E-001  
  892.50  2.7322E-001  
  893.00  2.7016E-001  
  893.50  2.6684E-001  
  894.00  2.6698E-001  
  894.50  2.6405E-001  
  895.00  2.6726E-001  
  895.50  2.6925E-001  
  896.00  2.6452E-001  
  896.50  2.6366E-001  
  897.00  2.6822E-001  
  897.50  2.6887E-001  
  898.00  2.6697E-001  
  898.50  2.6740E-001  
  899.00  2.6676E-001  
  899.50  5.2840E-003  
