
# From lspdd.org
# 
# Name: INC Globe A19 Domestique
# Indice spectral Valeur 
# MSI 0.36 
# SLI 0.81 
# IPI 0.44 
# Pourcentage de bleu 30.9 
# Caractéristique Valeur 
# CCT calculée (K) 5929 
# CCT du fabricant (K) 7600 
# Tension (V) 130 
# Puissance (W) 60.0 
# Efficacité lumineuse (Lum/W) ND 
#
# Image: '/app/system/img_1s/2757/medium_image1.jpg?1612236553'
# 

  273.00  0.0000E+000  
  273.50  0.0000E+000  
  274.00  0.0000E+000  
  274.50  0.0000E+000  
  275.00  0.0000E+000  
  275.50  0.0000E+000  
  276.00  0.0000E+000  
  276.50  0.0000E+000  
  277.00  0.0000E+000  
  277.50  0.0000E+000  
  278.00  0.0000E+000  
  278.50  0.0000E+000  
  279.00  0.0000E+000  
  279.50  0.0000E+000  
  280.00  0.0000E+000  
  280.50  0.0000E+000  
  281.00  0.0000E+000  
  281.50  0.0000E+000  
  282.00  0.0000E+000  
  282.50  0.0000E+000  
  283.00  0.0000E+000  
  283.50  0.0000E+000  
  284.00  0.0000E+000  
  284.50  0.0000E+000  
  285.00  0.0000E+000  
  285.50  0.0000E+000  
  286.00  0.0000E+000  
  286.50  0.0000E+000  
  287.00  0.0000E+000  
  287.50  0.0000E+000  
  288.00  0.0000E+000  
  288.50  0.0000E+000  
  289.00  0.0000E+000  
  289.50  0.0000E+000  
  290.00  0.0000E+000  
  290.50  0.0000E+000  
  291.00  0.0000E+000  
  291.50  0.0000E+000  
  292.00  0.0000E+000  
  292.50  0.0000E+000  
  293.00  0.0000E+000  
  293.50  0.0000E+000  
  294.00  0.0000E+000  
  294.50  0.0000E+000  
  295.00  0.0000E+000  
  295.50  0.0000E+000  
  296.00  0.0000E+000  
  296.50  0.0000E+000  
  297.00  0.0000E+000  
  297.50  0.0000E+000  
  298.00  0.0000E+000  
  298.50  0.0000E+000  
  299.00  0.0000E+000  
  299.50  0.0000E+000  
  300.00  0.0000E+000  
  300.50  0.0000E+000  
  301.00  0.0000E+000  
  301.50  0.0000E+000  
  302.00  0.0000E+000  
  302.50  0.0000E+000  
  303.00  0.0000E+000  
  303.50  0.0000E+000  
  304.00  0.0000E+000  
  304.50  0.0000E+000  
  305.00  0.0000E+000  
  305.50  0.0000E+000  
  306.00  0.0000E+000  
  306.50  0.0000E+000  
  307.00  0.0000E+000  
  307.50  0.0000E+000  
  308.00  0.0000E+000  
  308.50  0.0000E+000  
  309.00  0.0000E+000  
  309.50  0.0000E+000  
  310.00  0.0000E+000  
  310.50  0.0000E+000  
  311.00  0.0000E+000  
  311.50  0.0000E+000  
  312.00  0.0000E+000  
  312.50  0.0000E+000  
  313.00  0.0000E+000  
  313.50  0.0000E+000  
  314.00  0.0000E+000  
  314.50  0.0000E+000  
  315.00  0.0000E+000  
  315.50  0.0000E+000  
  316.00  0.0000E+000  
  316.50  0.0000E+000  
  317.00  0.0000E+000  
  317.50  0.0000E+000  
  318.00  0.0000E+000  
  318.50  0.0000E+000  
  319.00  0.0000E+000  
  319.50  0.0000E+000  
  320.00  0.0000E+000  
  320.50  0.0000E+000  
  321.00  0.0000E+000  
  321.50  0.0000E+000  
  322.00  0.0000E+000  
  322.50  1.1941E-005  
  323.00  1.6062E-005  
  323.50  0.0000E+000  
  324.00  0.0000E+000  
  324.50  0.0000E+000  
  325.00  0.0000E+000  
  325.50  0.0000E+000  
  326.00  0.0000E+000  
  326.50  0.0000E+000  
  327.00  0.0000E+000  
  327.50  0.0000E+000  
  328.00  0.0000E+000  
  328.50  0.0000E+000  
  329.00  0.0000E+000  
  329.50  0.0000E+000  
  330.00  0.0000E+000  
  330.50  0.0000E+000  
  331.00  0.0000E+000  
  331.50  0.0000E+000  
  332.00  0.0000E+000  
  332.50  0.0000E+000  
  333.00  0.0000E+000  
  333.50  0.0000E+000  
  334.00  0.0000E+000  
  334.50  0.0000E+000  
  335.00  0.0000E+000  
  335.50  0.0000E+000  
  336.00  0.0000E+000  
  336.50  0.0000E+000  
  337.00  0.0000E+000  
  337.50  0.0000E+000  
  338.00  0.0000E+000  
  338.50  0.0000E+000  
  339.00  0.0000E+000  
  339.50  3.4129E-004  
  340.00  4.8812E-004  
  340.50  2.6468E-004  
  341.00  2.9182E-005  
  341.50  0.0000E+000  
  342.00  0.0000E+000  
  342.50  0.0000E+000  
  343.00  0.0000E+000  
  343.50  0.0000E+000  
  344.00  0.0000E+000  
  344.50  0.0000E+000  
  345.00  0.0000E+000  
  345.50  0.0000E+000  
  346.00  0.0000E+000  
  346.50  0.0000E+000  
  347.00  0.0000E+000  
  347.50  0.0000E+000  
  348.00  0.0000E+000  
  348.50  0.0000E+000  
  349.00  0.0000E+000  
  349.50  0.0000E+000  
  350.00  0.0000E+000  
  350.50  0.0000E+000  
  351.00  0.0000E+000  
  351.50  0.0000E+000  
  352.00  0.0000E+000  
  352.50  0.0000E+000  
  353.00  0.0000E+000  
  353.50  0.0000E+000  
  354.00  0.0000E+000  
  354.50  0.0000E+000  
  355.00  0.0000E+000  
  355.50  0.0000E+000  
  356.00  0.0000E+000  
  356.50  0.0000E+000  
  357.00  0.0000E+000  
  357.50  0.0000E+000  
  358.00  0.0000E+000  
  358.50  0.0000E+000  
  359.00  0.0000E+000  
  359.50  0.0000E+000  
  360.00  0.0000E+000  
  360.50  0.0000E+000  
  361.00  0.0000E+000  
  361.50  0.0000E+000  
  362.00  0.0000E+000  
  362.50  0.0000E+000  
  363.00  0.0000E+000  
  363.50  0.0000E+000  
  364.00  0.0000E+000  
  364.50  0.0000E+000  
  365.00  0.0000E+000  
  365.50  0.0000E+000  
  366.00  0.0000E+000  
  366.50  0.0000E+000  
  367.00  0.0000E+000  
  367.50  0.0000E+000  
  368.00  0.0000E+000  
  368.50  0.0000E+000  
  369.00  0.0000E+000  
  369.50  0.0000E+000  
  370.00  0.0000E+000  
  370.50  0.0000E+000  
  371.00  0.0000E+000  
  371.50  0.0000E+000  
  372.00  0.0000E+000  
  372.50  0.0000E+000  
  373.00  0.0000E+000  
  373.50  0.0000E+000  
  374.00  0.0000E+000  
  374.50  0.0000E+000  
  375.00  0.0000E+000  
  375.50  0.0000E+000  
  376.00  0.0000E+000  
  376.50  0.0000E+000  
  377.00  0.0000E+000  
  377.50  0.0000E+000  
  378.00  0.0000E+000  
  378.50  0.0000E+000  
  379.00  0.0000E+000  
  379.50  0.0000E+000  
  380.00  5.8563E-007  
  380.50  1.4017E-004  
  381.00  2.3953E-004  
  381.50  1.2059E-004  
  382.00  0.0000E+000  
  382.50  0.0000E+000  
  383.00  0.0000E+000  
  383.50  0.0000E+000  
  384.00  0.0000E+000  
  384.50  0.0000E+000  
  385.00  0.0000E+000  
  385.50  0.0000E+000  
  386.00  0.0000E+000  
  386.50  0.0000E+000  
  387.00  0.0000E+000  
  387.50  0.0000E+000  
  388.00  0.0000E+000  
  388.50  0.0000E+000  
  389.00  0.0000E+000  
  389.50  0.0000E+000  
  390.00  0.0000E+000  
  390.50  3.5516E-005  
  391.00  1.5587E-004  
  391.50  4.0929E-005  
  392.00  1.9688E-004  
  392.50  5.3896E-004  
  393.00  5.8669E-004  
  393.50  6.0731E-004  
  394.00  3.4216E-004  
  394.50  0.0000E+000  
  395.00  0.0000E+000  
  395.50  0.0000E+000  
  396.00  3.2220E-004  
  396.50  8.3551E-004  
  397.00  1.2041E-003  
  397.50  1.3360E-003  
  398.00  1.1434E-003  
  398.50  9.9455E-004  
  399.00  1.0274E-003  
  399.50  1.1739E-003  
  400.00  1.2386E-003  
  400.50  1.0721E-003  
  401.00  7.8947E-004  
  401.50  8.8362E-004  
  402.00  1.0899E-003  
  402.50  1.3493E-003  
  403.00  1.3465E-003  
  403.50  1.0455E-003  
  404.00  8.3254E-004  
  404.50  7.4439E-004  
  405.00  8.5709E-004  
  405.50  1.0316E-003  
  406.00  1.1400E-003  
  406.50  1.3714E-003  
  407.00  1.4406E-003  
  407.50  1.6247E-003  
  408.00  1.8070E-003  
  408.50  1.8787E-003  
  409.00  1.7936E-003  
  409.50  1.3284E-003  
  410.00  7.7840E-004  
  410.50  6.1762E-004  
  411.00  9.3955E-004  
  411.50  1.3228E-003  
  412.00  1.5724E-003  
  412.50  1.5338E-003  
  413.00  1.5010E-003  
  413.50  1.5735E-003  
  414.00  1.5512E-003  
  414.50  1.6095E-003  
  415.00  1.7369E-003  
  415.50  1.8480E-003  
  416.00  1.8428E-003  
  416.50  1.8623E-003  
  417.00  1.9586E-003  
  417.50  2.1018E-003  
  418.00  2.1798E-003  
  418.50  1.8623E-003  
  419.00  1.8306E-003  
  419.50  2.0201E-003  
  420.00  2.2877E-003  
  420.50  2.6196E-003  
  421.00  2.8729E-003  
  421.50  2.8638E-003  
  422.00  2.8557E-003  
  422.50  2.7771E-003  
  423.00  2.5905E-003  
  423.50  2.6105E-003  
  424.00  2.6481E-003  
  424.50  2.7061E-003  
  425.00  2.6927E-003  
  425.50  2.6324E-003  
  426.00  2.4217E-003  
  426.50  2.4827E-003  
  427.00  2.5383E-003  
  427.50  2.5184E-003  
  428.00  2.5564E-003  
  428.50  2.5609E-003  
  429.00  2.7214E-003  
  429.50  2.9705E-003  
  430.00  2.9865E-003  
  430.50  3.0315E-003  
  431.00  3.0970E-003  
  431.50  3.2982E-003  
  432.00  3.5028E-003  
  432.50  3.4700E-003  
  433.00  3.4125E-003  
  433.50  3.3022E-003  
  434.00  3.4751E-003  
  434.50  3.6729E-003  
  435.00  3.7586E-003  
  435.50  3.7105E-003  
  436.00  3.7391E-003  
  436.50  3.6525E-003  
  437.00  3.5768E-003  
  437.50  3.3357E-003  
  438.00  3.3130E-003  
  438.50  3.3550E-003  
  439.00  3.5105E-003  
  439.50  3.5683E-003  
  440.00  3.6272E-003  
  440.50  3.7424E-003  
  441.00  4.0853E-003  
  441.50  4.4468E-003  
  442.00  4.4520E-003  
  442.50  4.3325E-003  
  443.00  4.2081E-003  
  443.50  4.1985E-003  
  444.00  4.4586E-003  
  444.50  4.4302E-003  
  445.00  4.5292E-003  
  445.50  4.6651E-003  
  446.00  4.7619E-003  
  446.50  4.8717E-003  
  447.00  4.7565E-003  
  447.50  4.5344E-003  
  448.00  4.3082E-003  
  448.50  4.0768E-003  
  449.00  4.2249E-003  
  449.50  4.3062E-003  
  450.00  4.5079E-003  
  450.50  4.5827E-003  
  451.00  4.6370E-003  
  451.50  4.9577E-003  
  452.00  5.2824E-003  
  452.50  5.6976E-003  
  453.00  6.0587E-003  
  453.50  6.0996E-003  
  454.00  5.8595E-003  
  454.50  5.5617E-003  
  455.00  5.4849E-003  
  455.50  5.4375E-003  
  456.00  5.7811E-003  
  456.50  5.8701E-003  
  457.00  5.9244E-003  
  457.50  6.0705E-003  
  458.00  5.9410E-003  
  458.50  6.1603E-003  
  459.00  6.3732E-003  
  459.50  6.6905E-003  
  460.00  7.0636E-003  
  460.50  6.9209E-003  
  461.00  6.6527E-003  
  461.50  6.5167E-003  
  462.00  6.5753E-003  
  462.50  6.9801E-003  
  463.00  7.2254E-003  
  463.50  7.3839E-003  
  464.00  7.6018E-003  
  464.50  7.6853E-003  
  465.00  7.8733E-003  
  465.50  8.1355E-003  
  466.00  8.3478E-003  
  466.50  8.5857E-003  
  467.00  8.7015E-003  
  467.50  8.9521E-003  
  468.00  9.1853E-003  
  468.50  9.2764E-003  
  469.00  9.3027E-003  
  469.50  9.3282E-003  
  470.00  9.6526E-003  
  470.50  1.0144E-002  
  471.00  1.0462E-002  
  471.50  1.0587E-002  
  472.00  1.0689E-002  
  472.50  1.0837E-002  
  473.00  1.1185E-002  
  473.50  1.1709E-002  
  474.00  1.2035E-002  
  474.50  1.2098E-002  
  475.00  1.2100E-002  
  475.50  1.1959E-002  
  476.00  1.2135E-002  
  476.50  1.2534E-002  
  477.00  1.2780E-002  
  477.50  1.3089E-002  
  478.00  1.3410E-002  
  478.50  1.3589E-002  
  479.00  1.3921E-002  
  479.50  1.4175E-002  
  480.00  1.4602E-002  
  480.50  1.4972E-002  
  481.00  1.5020E-002  
  481.50  1.5232E-002  
  482.00  1.5405E-002  
  482.50  1.5867E-002  
  483.00  1.6329E-002  
  483.50  1.6595E-002  
  484.00  1.6913E-002  
  484.50  1.7143E-002  
  485.00  1.7419E-002  
  485.50  1.7731E-002  
  486.00  1.7859E-002  
  486.50  1.8139E-002  
  487.00  1.8335E-002  
  487.50  1.8652E-002  
  488.00  1.8916E-002  
  488.50  1.9228E-002  
  489.00  1.9589E-002  
  489.50  1.9980E-002  
  490.00  2.0312E-002  
  490.50  2.0587E-002  
  491.00  2.0962E-002  
  491.50  2.1280E-002  
  492.00  2.1700E-002  
  492.50  2.1979E-002  
  493.00  2.2105E-002  
  493.50  2.2226E-002  
  494.00  2.2362E-002  
  494.50  2.2711E-002  
  495.00  2.3155E-002  
  495.50  2.3612E-002  
  496.00  2.4058E-002  
  496.50  2.4404E-002  
  497.00  2.4780E-002  
  497.50  2.5182E-002  
  498.00  2.5556E-002  
  498.50  2.5921E-002  
  499.00  2.6185E-002  
  499.50  2.6510E-002  
  500.00  2.6872E-002  
  500.50  2.7316E-002  
  501.00  2.7825E-002  
  501.50  2.8312E-002  
  502.00  2.8708E-002  
  502.50  2.9021E-002  
  503.00  2.9373E-002  
  503.50  2.9815E-002  
  504.00  3.0233E-002  
  504.50  3.0626E-002  
  505.00  3.1022E-002  
  505.50  3.1514E-002  
  506.00  3.1898E-002  
  506.50  3.2236E-002  
  507.00  3.2522E-002  
  507.50  3.2767E-002  
  508.00  3.3310E-002  
  508.50  3.3714E-002  
  509.00  3.4230E-002  
  509.50  3.4646E-002  
  510.00  3.5053E-002  
  510.50  3.5387E-002  
  511.00  3.5723E-002  
  511.50  3.6120E-002  
  512.00  3.6464E-002  
  512.50  3.6840E-002  
  513.00  3.7097E-002  
  513.50  3.7455E-002  
  514.00  3.7846E-002  
  514.50  3.8149E-002  
  515.00  3.8295E-002  
  515.50  3.8551E-002  
  516.00  3.8852E-002  
  516.50  3.9428E-002  
  517.00  3.9887E-002  
  517.50  4.0265E-002  
  518.00  4.0811E-002  
  518.50  4.1239E-002  
  519.00  4.1590E-002  
  519.50  4.1700E-002  
  520.00  4.1700E-002  
  520.50  4.1820E-002  
  521.00  4.2045E-002  
  521.50  4.2347E-002  
  522.00  4.2713E-002  
  522.50  4.2942E-002  
  523.00  4.3243E-002  
  523.50  4.3542E-002  
  524.00  4.3971E-002  
  524.50  4.4334E-002  
  525.00  4.4689E-002  
  525.50  4.4994E-002  
  526.00  4.5416E-002  
  526.50  4.5823E-002  
  527.00  4.6217E-002  
  527.50  4.6470E-002  
  528.00  4.6531E-002  
  528.50  4.6579E-002  
  529.00  4.6656E-002  
  529.50  4.6896E-002  
  530.00  4.7159E-002  
  530.50  4.7330E-002  
  531.00  4.7334E-002  
  531.50  4.7534E-002  
  532.00  4.7747E-002  
  532.50  4.8042E-002  
  533.00  4.8356E-002  
  533.50  4.8788E-002  
  534.00  4.9177E-002  
  534.50  4.9513E-002  
  535.00  4.9499E-002  
  535.50  4.9136E-002  
  536.00  4.8816E-002  
  536.50  4.8862E-002  
  537.00  4.9161E-002  
  537.50  4.9557E-002  
  538.00  4.9801E-002  
  538.50  4.9841E-002  
  539.00  4.9907E-002  
  539.50  4.9845E-002  
  540.00  4.9868E-002  
  540.50  5.0070E-002  
  541.00  5.0361E-002  
  541.50  5.0581E-002  
  542.00  5.0599E-002  
  542.50  5.0598E-002  
  543.00  5.0747E-002  
  543.50  5.0791E-002  
  544.00  5.0751E-002  
  544.50  5.0570E-002  
  545.00  5.0629E-002  
  545.50  5.0578E-002  
  546.00  5.0505E-002  
  546.50  5.0300E-002  
  547.00  5.0304E-002  
  547.50  5.0304E-002  
  548.00  5.0283E-002  
  548.50  5.0200E-002  
  549.00  5.0295E-002  
  549.50  5.0345E-002  
  550.00  5.0198E-002  
  550.50  4.9774E-002  
  551.00  4.9190E-002  
  551.50  4.8912E-002  
  552.00  4.8666E-002  
  552.50  4.8439E-002  
  553.00  4.7930E-002  
  553.50  4.7620E-002  
  554.00  4.7395E-002  
  554.50  4.7282E-002  
  555.00  4.7057E-002  
  555.50  4.6829E-002  
  556.00  4.6623E-002  
  556.50  4.6318E-002  
  557.00  4.6006E-002  
  557.50  4.5632E-002  
  558.00  4.5205E-002  
  558.50  4.4806E-002  
  559.00  4.4477E-002  
  559.50  4.4204E-002  
  560.00  4.3951E-002  
  560.50  4.3357E-002  
  561.00  4.2954E-002  
  561.50  4.2356E-002  
  562.00  4.1864E-002  
  562.50  4.1391E-002  
  563.00  4.0865E-002  
  563.50  4.0684E-002  
  564.00  4.0599E-002  
  564.50  4.0544E-002  
  565.00  4.0131E-002  
  565.50  3.9747E-002  
  566.00  3.9472E-002  
  566.50  3.9155E-002  
  567.00  3.8702E-002  
  567.50  3.7977E-002  
  568.00  3.7419E-002  
  568.50  3.7062E-002  
  569.00  3.6709E-002  
  569.50  3.6403E-002  
  570.00  3.5975E-002  
  570.50  3.5324E-002  
  571.00  3.4894E-002  
  571.50  3.4602E-002  
  572.00  3.4272E-002  
  572.50  3.3836E-002  
  573.00  3.3148E-002  
  573.50  3.2730E-002  
  574.00  3.2738E-002  
  574.50  3.2797E-002  
  575.00  3.2604E-002  
  575.50  3.2208E-002  
  576.00  3.1633E-002  
  576.50  3.1257E-002  
  577.00  3.0857E-002  
  577.50  3.0454E-002  
  578.00  3.0092E-002  
  578.50  2.9614E-002  
  579.00  2.9127E-002  
  579.50  2.8636E-002  
  580.00  2.8203E-002  
  580.50  2.7764E-002  
  581.00  2.7384E-002  
  581.50  2.7048E-002  
  582.00  2.6799E-002  
  582.50  2.6544E-002  
  583.00  2.5992E-002  
  583.50  2.5607E-002  
  584.00  2.5246E-002  
  584.50  2.5080E-002  
  585.00  2.4997E-002  
  585.50  2.4604E-002  
  586.00  2.4238E-002  
  586.50  2.3824E-002  
  587.00  2.3505E-002  
  587.50  2.3422E-002  
  588.00  2.2865E-002  
  588.50  2.2432E-002  
  589.00  2.1963E-002  
  589.50  2.1747E-002  
  590.00  2.1447E-002  
  590.50  2.1023E-002  
  591.00  2.0748E-002  
  591.50  2.0461E-002  
  592.00  2.0008E-002  
  592.50  1.9479E-002  
  593.00  1.9081E-002  
  593.50  1.8793E-002  
  594.00  1.8427E-002  
  594.50  1.7756E-002  
  595.00  1.7339E-002  
  595.50  1.6943E-002  
  596.00  1.6534E-002  
  596.50  1.6058E-002  
  597.00  1.5408E-002  
  597.50  1.4859E-002  
  598.00  1.4291E-002  
  598.50  1.3583E-002  
  599.00  1.2951E-002  
  599.50  1.2402E-002  
  600.00  1.2105E-002  
  600.50  1.2035E-002  
  601.00  1.1736E-002  
  601.50  1.1320E-002  
  602.00  1.0679E-002  
  602.50  1.0179E-002  
  603.00  9.7733E-003  
  603.50  9.2672E-003  
  604.00  8.7863E-003  
  604.50  8.4562E-003  
  605.00  8.3481E-003  
  605.50  8.3641E-003  
  606.00  8.1618E-003  
  606.50  7.8841E-003  
  607.00  7.6338E-003  
  607.50  7.5030E-003  
  608.00  7.3880E-003  
  608.50  7.2142E-003  
  609.00  6.8992E-003  
  609.50  6.7093E-003  
  610.00  6.5688E-003  
  610.50  6.5553E-003  
  611.00  6.4684E-003  
  611.50  6.3729E-003  
  612.00  6.4682E-003  
  612.50  6.5461E-003  
  613.00  6.4349E-003  
  613.50  6.0888E-003  
  614.00  5.7127E-003  
  614.50  5.6479E-003  
  615.00  5.7897E-003  
  615.50  6.0335E-003  
  616.00  6.2344E-003  
  616.50  6.1509E-003  
  617.00  5.8588E-003  
  617.50  5.4236E-003  
  618.00  5.1457E-003  
  618.50  5.0967E-003  
  619.00  5.0676E-003  
  619.50  5.1107E-003  
  620.00  5.1851E-003  
  620.50  5.3528E-003  
  621.00  5.5415E-003  
  621.50  5.4865E-003  
  622.00  5.4312E-003  
  622.50  5.4800E-003  
  623.00  5.6268E-003  
  623.50  5.6554E-003  
  624.00  5.5197E-003  
  624.50  5.2019E-003  
  625.00  5.0752E-003  
  625.50  4.9567E-003  
  626.00  5.1760E-003  
  626.50  5.3162E-003  
  627.00  5.5426E-003  
  627.50  5.5669E-003  
  628.00  5.4455E-003  
  628.50  5.3941E-003  
  629.00  5.2726E-003  
  629.50  5.3264E-003  
  630.00  5.1165E-003  
  630.50  5.0997E-003  
  631.00  5.0306E-003  
  631.50  5.1834E-003  
  632.00  5.2370E-003  
  632.50  5.4107E-003  
  633.00  5.3925E-003  
  633.50  5.2717E-003  
  634.00  4.9883E-003  
  634.50  4.8035E-003  
  635.00  5.0547E-003  
  635.50  5.3127E-003  
  636.00  5.6124E-003  
  636.50  5.5607E-003  
  637.00  5.5402E-003  
  637.50  5.3141E-003  
  638.00  5.0067E-003  
  638.50  4.7922E-003  
  639.00  4.9255E-003  
  639.50  5.3731E-003  
  640.00  5.5229E-003  
  640.50  5.4226E-003  
  641.00  5.2551E-003  
  641.50  5.1397E-003  
  642.00  5.1623E-003  
  642.50  4.9976E-003  
  643.00  4.9917E-003  
  643.50  4.9812E-003  
  644.00  4.7841E-003  
  644.50  4.5882E-003  
  645.00  4.5001E-003  
  645.50  4.6113E-003  
  646.00  4.6578E-003  
  646.50  4.6663E-003  
  647.00  4.4690E-003  
  647.50  4.3181E-003  
  648.00  4.2174E-003  
  648.50  4.4132E-003  
  649.00  4.4386E-003  
  649.50  4.3565E-003  
  650.00  4.1447E-003  
  650.50  3.7053E-003  
  651.00  3.3209E-003  
  651.50  3.0160E-003  
  652.00  3.0911E-003  
  652.50  3.2241E-003  
  653.00  3.4445E-003  
  653.50  3.6812E-003  
  654.00  3.7228E-003  
  654.50  3.4814E-003  
  655.00  3.3716E-003  
  655.50  3.1582E-003  
  656.00  2.9549E-003  
  656.50  2.5784E-003  
  657.00  2.4642E-003  
  657.50  2.3923E-003  
  658.00  2.5115E-003  
  658.50  2.2519E-003  
  659.00  1.6693E-003  
  659.50  1.1179E-003  
  660.00  9.9816E-004  
  660.50  1.2488E-003  
  661.00  1.1623E-003  
  661.50  1.0338E-003  
  662.00  1.1082E-003  
  662.50  1.3434E-003  
  663.00  1.2084E-003  
  663.50  1.0662E-003  
  664.00  8.4863E-004  
  664.50  9.0216E-004  
  665.00  5.9565E-004  
  665.50  4.7252E-004  
  666.00  1.3151E-004  
  666.50  6.9580E-005  
  667.00  0.0000E+000  
  667.50  1.4067E-004  
  668.00  2.3099E-004  
  668.50  2.4898E-004  
  669.00  2.5349E-004  
  669.50  4.0045E-004  
  670.00  5.7517E-004  
  670.50  4.8485E-004  
  671.00  2.6527E-004  
  671.50  1.7667E-004  
  672.00  9.8261E-006  
  672.50  0.0000E+000  
  673.00  0.0000E+000  
  673.50  2.7603E-005  
  674.00  6.3624E-005  
  674.50  3.2657E-004  
  675.00  3.5306E-004  
  675.50  5.4529E-005  
  676.00  0.0000E+000  
  676.50  0.0000E+000  
  677.00  1.0579E-004  
  677.50  1.1507E-004  
  678.00  0.0000E+000  
  678.50  3.1696E-005  
  679.00  2.2932E-004  
  679.50  3.9521E-004  
  680.00  3.3718E-004  
  680.50  4.4106E-004  
  681.00  6.6024E-004  
  681.50  6.6158E-004  
  682.00  2.2198E-004  
  682.50  2.8527E-005  
  683.00  2.9387E-004  
  683.50  7.3277E-004  
  684.00  6.7922E-004  
  684.50  2.6586E-004  
  685.00  2.2918E-004  
  685.50  5.0438E-004  
  686.00  6.4507E-004  
  686.50  4.5393E-004  
  687.00  2.8114E-004  
  687.50  3.5336E-004  
  688.00  3.0271E-004  
  688.50  2.7356E-004  
  689.00  2.7676E-004  
  689.50  5.3758E-004  
  690.00  8.2289E-004  
  690.50  1.0272E-003  
  691.00  1.1590E-003  
  691.50  1.3214E-003  
  692.00  1.4089E-003  
  692.50  1.5165E-003  
  693.00  1.7012E-003  
  693.50  2.4621E-003  
  694.00  3.0001E-003  
  694.50  3.2272E-003  
  695.00  2.8983E-003  
  695.50  3.1217E-003  
  696.00  3.6534E-003  
  696.50  4.4325E-003  
  697.00  4.9910E-003  
  697.50  5.5324E-003  
  698.00  6.1665E-003  
  698.50  6.8603E-003  
  699.00  7.5509E-003  
  699.50  7.7732E-003  
  700.00  8.3431E-003  
  700.50  9.1422E-003  
  701.00  1.0271E-002  
  701.50  1.1121E-002  
  702.00  1.2177E-002  
  702.50  1.3094E-002  
  703.00  1.3662E-002  
  703.50  1.4471E-002  
  704.00  1.5415E-002  
  704.50  1.6845E-002  
  705.00  1.7990E-002  
  705.50  1.9168E-002  
  706.00  1.9793E-002  
  706.50  2.0695E-002  
  707.00  2.2064E-002  
  707.50  2.3760E-002  
  708.00  2.5183E-002  
  708.50  2.6724E-002  
  709.00  2.7999E-002  
  709.50  2.9299E-002  
  710.00  3.0176E-002  
  710.50  3.1263E-002  
  711.00  3.2497E-002  
  711.50  3.3773E-002  
  712.00  3.5484E-002  
  712.50  3.7235E-002  
  713.00  3.8744E-002  
  713.50  3.9779E-002  
  714.00  4.0978E-002  
  714.50  4.2638E-002  
  715.00  4.4193E-002  
  715.50  4.5295E-002  
  716.00  4.6011E-002  
  716.50  4.7217E-002  
  717.00  4.8598E-002  
  717.50  4.9895E-002  
  718.00  5.0851E-002  
  718.50  5.1919E-002  
  719.00  5.3800E-002  
  719.50  5.5526E-002  
  720.00  5.7135E-002  
  720.50  5.8266E-002  
  721.00  5.9672E-002  
  721.50  6.0740E-002  
  722.00  6.2076E-002  
  722.50  6.3531E-002  
  723.00  6.5336E-002  
  723.50  6.6609E-002  
  724.00  6.7708E-002  
  724.50  6.9301E-002  
  725.00  7.1411E-002  
  725.50  7.3586E-002  
  726.00  7.4916E-002  
  726.50  7.5723E-002  
  727.00  7.6613E-002  
  727.50  7.7842E-002  
  728.00  7.9020E-002  
  728.50  8.0532E-002  
  729.00  8.2018E-002  
  729.50  8.3692E-002  
  730.00  8.5234E-002  
  730.50  8.6273E-002  
  731.00  8.6721E-002  
  731.50  8.7097E-002  
  732.00  8.8045E-002  
  732.50  8.9372E-002  
  733.00  9.1451E-002  
  733.50  9.2851E-002  
  734.00  9.4573E-002  
  734.50  9.5786E-002  
  735.00  9.6994E-002  
  735.50  9.7756E-002  
  736.00  9.8749E-002  
  736.50  9.9932E-002  
  737.00  1.0129E-001  
  737.50  1.0247E-001  
  738.00  1.0418E-001  
  738.50  1.0574E-001  
  739.00  1.0708E-001  
  739.50  1.0808E-001  
  740.00  1.0944E-001  
  740.50  1.1047E-001  
  741.00  1.1170E-001  
  741.50  1.1321E-001  
  742.00  1.1415E-001  
  742.50  1.1480E-001  
  743.00  1.1564E-001  
  743.50  1.1786E-001  
  744.00  1.1913E-001  
  744.50  1.2019E-001  
  745.00  1.2119E-001  
  745.50  1.2272E-001  
  746.00  1.2315E-001  
  746.50  1.2436E-001  
  747.00  1.2533E-001  
  747.50  1.2678E-001  
  748.00  1.2792E-001  
  748.50  1.2970E-001  
  749.00  1.3033E-001  
  749.50  1.3093E-001  
  750.00  1.3207E-001  
  750.50  1.3320E-001  
  751.00  1.3394E-001  
  751.50  1.3494E-001  
  752.00  1.3643E-001  
  752.50  1.3779E-001  
  753.00  1.3855E-001  
  753.50  1.3910E-001  
  754.00  1.3959E-001  
  754.50  1.4044E-001  
  755.00  1.4170E-001  
  755.50  1.4206E-001  
  756.00  1.4258E-001  
  756.50  1.4332E-001  
  757.00  1.4456E-001  
  757.50  1.4590E-001  
  758.00  1.4689E-001  
  758.50  1.4821E-001  
  759.00  1.4948E-001  
  759.50  1.5000E-001  
  760.00  1.4962E-001  
  760.50  1.4998E-001  
  761.00  1.5111E-001  
  761.50  1.5287E-001  
  762.00  1.5460E-001  
  762.50  1.5574E-001  
  763.00  1.5668E-001  
  763.50  1.5702E-001  
  764.00  1.5786E-001  
  764.50  1.5845E-001  
  765.00  1.5876E-001  
  765.50  1.5885E-001  
  766.00  1.5899E-001  
  766.50  1.5990E-001  
  767.00  1.6233E-001  
  767.50  1.6506E-001  
  768.00  1.6705E-001  
  768.50  1.6782E-001  
  769.00  1.6677E-001  
  769.50  1.6555E-001  
  770.00  1.6572E-001  
  770.50  1.6763E-001  
  771.00  1.6933E-001  
  771.50  1.6999E-001  
  772.00  1.6933E-001  
  772.50  1.6921E-001  
  773.00  1.6956E-001  
  773.50  1.7184E-001  
  774.00  1.7428E-001  
  774.50  1.7632E-001  
  775.00  1.7580E-001  
  775.50  1.7423E-001  
  776.00  1.7356E-001  
  776.50  1.7408E-001  
  777.00  1.7479E-001  
  777.50  1.7551E-001  
  778.00  1.7648E-001  
  778.50  1.7668E-001  
  779.00  1.7708E-001  
  779.50  1.7777E-001  
  780.00  1.7959E-001  
  780.50  1.8159E-001  
  781.00  1.8307E-001  
  781.50  1.8287E-001  
  782.00  1.8251E-001  
  782.50  1.8394E-001  
  783.00  1.8508E-001  
  783.50  1.8561E-001  
  784.00  1.8589E-001  
  784.50  1.8658E-001  
  785.00  1.8628E-001  
  785.50  1.8625E-001  
  786.00  1.8626E-001  
  786.50  1.8710E-001  
  787.00  1.8690E-001  
  787.50  1.8792E-001  
  788.00  1.8899E-001  
  788.50  1.8950E-001  
  789.00  1.8941E-001  
  789.50  1.8958E-001  
  790.00  1.9041E-001  
  790.50  1.9038E-001  
  791.00  1.9158E-001  
  791.50  1.9288E-001  
  792.00  1.9486E-001  
  792.50  1.9444E-001  
  793.00  1.9472E-001  
  793.50  1.9477E-001  
  794.00  1.9518E-001  
  794.50  1.9554E-001  
  795.00  1.9657E-001  
  795.50  1.9736E-001  
  796.00  1.9758E-001  
  796.50  1.9767E-001  
  797.00  1.9724E-001  
  797.50  1.9677E-001  
  798.00  1.9654E-001  
  798.50  1.9767E-001  
  799.00  1.9918E-001  
  799.50  1.9960E-001  
  800.00  1.9953E-001  
  800.50  1.9991E-001  
  801.00  2.0105E-001  
  801.50  2.0085E-001  
  802.00  1.9908E-001  
  802.50  1.9787E-001  
  803.00  1.9851E-001  
  803.50  2.0031E-001  
  804.00  2.0206E-001  
  804.50  2.0459E-001  
  805.00  2.0416E-001  
  805.50  2.0296E-001  
  806.00  2.0230E-001  
  806.50  2.0393E-001  
  807.00  2.0458E-001  
  807.50  2.0508E-001  
  808.00  2.0447E-001  
  808.50  2.0476E-001  
  809.00  2.0518E-001  
  809.50  2.0598E-001  
  810.00  2.0588E-001  
  810.50  2.0597E-001  
  811.00  2.0746E-001  
  811.50  2.0811E-001  
  812.00  2.0768E-001  
  812.50  2.0792E-001  
  813.00  2.0889E-001  
  813.50  2.0855E-001  
  814.00  2.0828E-001  
  814.50  2.0949E-001  
  815.00  2.1149E-001  
  815.50  2.1323E-001  
  816.00  2.1333E-001  
  816.50  2.1295E-001  
  817.00  2.1218E-001  
  817.50  2.1157E-001  
  818.00  2.1291E-001  
  818.50  2.1323E-001  
  819.00  2.1296E-001  
  819.50  2.1238E-001  
  820.00  2.1274E-001  
  820.50  2.1114E-001  
  821.00  2.1037E-001  
  821.50  2.1149E-001  
  822.00  2.1200E-001  
  822.50  2.1178E-001  
  823.00  2.1324E-001  
  823.50  2.1550E-001  
  824.00  2.1719E-001  
  824.50  2.1583E-001  
  825.00  2.1383E-001  
  825.50  2.1476E-001  
  826.00  2.1625E-001  
  826.50  2.1743E-001  
  827.00  2.1635E-001  
  827.50  2.1626E-001  
  828.00  2.1811E-001  
  828.50  2.1958E-001  
  829.00  2.1845E-001  
  829.50  2.1798E-001  
  830.00  2.1718E-001  
  830.50  2.1531E-001  
  831.00  2.1724E-001  
  831.50  2.1999E-001  
  832.00  2.2083E-001  
  832.50  2.1944E-001  
  833.00  2.1813E-001  
  833.50  2.1685E-001  
  834.00  2.1744E-001  
  834.50  2.2155E-001  
  835.00  2.2167E-001  
  835.50  2.1981E-001  
  836.00  2.2043E-001  
  836.50  2.2161E-001  
  837.00  2.2506E-001  
  837.50  2.2741E-001  
  838.00  2.2604E-001  
  838.50  2.2474E-001  
  839.00  2.2542E-001  
  839.50  2.2583E-001  
  840.00  2.2598E-001  
  840.50  2.2568E-001  
  841.00  2.2651E-001  
  841.50  2.2285E-001  
  842.00  2.2220E-001  
  842.50  2.2261E-001  
  843.00  2.2586E-001  
  843.50  2.2733E-001  
  844.00  2.2525E-001  
  844.50  2.2415E-001  
  845.00  2.2740E-001  
  845.50  2.2808E-001  
  846.00  2.2634E-001  
  846.50  2.2467E-001  
  847.00  2.2740E-001  
  847.50  2.2827E-001  
  848.00  2.2651E-001  
  848.50  2.2684E-001  
  849.00  2.3275E-001  
  849.50  2.3600E-001  
  850.00  2.3498E-001  
  850.50  2.3180E-001  
  851.00  2.2746E-001  
  851.50  2.2516E-001  
  852.00  2.2662E-001  
  852.50  2.2889E-001  
  853.00  2.3129E-001  
  853.50  2.3215E-001  
  854.00  2.3124E-001  
  854.50  2.3048E-001  
  855.00  2.3178E-001  
  855.50  2.3143E-001  
  856.00  2.3187E-001  
  856.50  2.3205E-001  
  857.00  2.3263E-001  
  857.50  2.2994E-001  
  858.00  2.3008E-001  
  858.50  2.2998E-001  
  859.00  2.3162E-001  
  859.50  2.3134E-001  
  860.00  2.3055E-001  
  860.50  2.3116E-001  
  861.00  2.3270E-001  
  861.50  2.3061E-001  
  862.00  2.3124E-001  
  862.50  2.3411E-001  
  863.00  2.3496E-001  
  863.50  2.3347E-001  
  864.00  2.3181E-001  
  864.50  2.2953E-001  
  865.00  2.2904E-001  
  865.50  2.2983E-001  
  866.00  2.3375E-001  
  866.50  2.3609E-001  
  867.00  2.3217E-001  
  867.50  2.3087E-001  
  868.00  2.3169E-001  
  868.50  2.3267E-001  
  869.00  2.3352E-001  
  869.50  2.3782E-001  
  870.00  2.3822E-001  
  870.50  2.3637E-001  
  871.00  2.3185E-001  
  871.50  2.3154E-001  
  872.00  2.3204E-001  
  872.50  2.3316E-001  
  873.00  2.3463E-001  
  873.50  2.3996E-001  
  874.00  2.4003E-001  
  874.50  2.3289E-001  
  875.00  2.2722E-001  
  875.50  2.2781E-001  
  876.00  2.2949E-001  
  876.50  2.3110E-001  
  877.00  2.3246E-001  
  877.50  2.3309E-001  
  878.00  2.3256E-001  
  878.50  2.3333E-001  
  879.00  2.3618E-001  
  879.50  2.4160E-001  
  880.00  2.4021E-001  
  880.50  2.3739E-001  
  881.00  2.3678E-001  
  881.50  2.3712E-001  
  882.00  2.3485E-001  
  882.50  2.3063E-001  
  883.00  2.3270E-001  
  883.50  2.3674E-001  
  884.00  2.3941E-001  
  884.50  2.4022E-001  
  885.00  2.4126E-001  
  885.50  2.4056E-001  
  886.00  2.3661E-001  
  886.50  2.3561E-001  
  887.00  2.3725E-001  
  887.50  2.3539E-001  
  888.00  2.3317E-001  
  888.50  2.3850E-001  
  889.00  2.4338E-001  
  889.50  2.4203E-001  
  890.00  2.3698E-001  
  890.50  2.3771E-001  
  891.00  2.4368E-001  
  891.50  2.4430E-001  
  892.00  2.4083E-001  
  892.50  2.3784E-001  
  893.00  2.3577E-001  
  893.50  2.3264E-001  
  894.00  2.3107E-001  
  894.50  2.3060E-001  
  895.00  2.3559E-001  
  895.50  2.3989E-001  
  896.00  2.4377E-001  
  896.50  2.4244E-001  
  897.00  2.4074E-001  
  897.50  2.3881E-001  
  898.00  2.3479E-001  
  898.50  2.3297E-001  
  899.00  2.3570E-001  
  899.50  4.6750E-003  
