
# From lspdd.org
# 
# Name: LFC GlobeDomestique
# Indice spectral Valeur 
# MSI 0.30 
# SLI 0.46 
# IPI 0.59 
# Pourcentage de bleu 16.1 
# Caractéristique Valeur 
# CCT calculée (K) 2657 
# CCT du fabricant (K) 2700 
# Tension (V) 120 
# Puissance (W) 9.0 
# Efficacité lumineuse (Lum/W) 56.0 
#
# Image: '/app/system/img_1s/2758/medium_image1.JPG?1612236556'
# 

  273.00  0.0000E+000  
  273.50  0.0000E+000  
  274.00  0.0000E+000  
  274.50  0.0000E+000  
  275.00  0.0000E+000  
  275.50  0.0000E+000  
  276.00  0.0000E+000  
  276.50  0.0000E+000  
  277.00  0.0000E+000  
  277.50  0.0000E+000  
  278.00  0.0000E+000  
  278.50  0.0000E+000  
  279.00  0.0000E+000  
  279.50  0.0000E+000  
  280.00  0.0000E+000  
  280.50  0.0000E+000  
  281.00  0.0000E+000  
  281.50  0.0000E+000  
  282.00  0.0000E+000  
  282.50  0.0000E+000  
  283.00  0.0000E+000  
  283.50  0.0000E+000  
  284.00  0.0000E+000  
  284.50  0.0000E+000  
  285.00  0.0000E+000  
  285.50  0.0000E+000  
  286.00  0.0000E+000  
  286.50  0.0000E+000  
  287.00  0.0000E+000  
  287.50  0.0000E+000  
  288.00  0.0000E+000  
  288.50  0.0000E+000  
  289.00  0.0000E+000  
  289.50  0.0000E+000  
  290.00  0.0000E+000  
  290.50  0.0000E+000  
  291.00  0.0000E+000  
  291.50  0.0000E+000  
  292.00  0.0000E+000  
  292.50  0.0000E+000  
  293.00  0.0000E+000  
  293.50  0.0000E+000  
  294.00  0.0000E+000  
  294.50  0.0000E+000  
  295.00  0.0000E+000  
  295.50  0.0000E+000  
  296.00  0.0000E+000  
  296.50  0.0000E+000  
  297.00  0.0000E+000  
  297.50  0.0000E+000  
  298.00  0.0000E+000  
  298.50  0.0000E+000  
  299.00  0.0000E+000  
  299.50  0.0000E+000  
  300.00  0.0000E+000  
  300.50  0.0000E+000  
  301.00  0.0000E+000  
  301.50  0.0000E+000  
  302.00  0.0000E+000  
  302.50  1.9771E-004  
  303.00  5.6160E-004  
  303.50  6.0677E-004  
  304.00  3.4128E-004  
  304.50  1.1207E-004  
  305.00  0.0000E+000  
  305.50  0.0000E+000  
  306.00  0.0000E+000  
  306.50  3.0733E-005  
  307.00  1.3845E-004  
  307.50  1.6455E-004  
  308.00  3.0160E-005  
  308.50  5.0513E-005  
  309.00  1.1281E-004  
  309.50  1.3056E-004  
  310.00  3.3127E-004  
  310.50  3.2439E-004  
  311.00  1.2526E-004  
  311.50  7.0024E-005  
  312.00  1.3080E-005  
  312.50  8.7135E-005  
  313.00  2.9505E-005  
  313.50  1.5737E-004  
  314.00  2.8035E-004  
  314.50  4.0706E-004  
  315.00  5.7371E-004  
  315.50  4.1135E-004  
  316.00  4.5496E-004  
  316.50  3.1459E-004  
  317.00  3.3229E-004  
  317.50  1.9966E-004  
  318.00  0.0000E+000  
  318.50  0.0000E+000  
  319.00  0.0000E+000  
  319.50  0.0000E+000  
  320.00  0.0000E+000  
  320.50  0.0000E+000  
  321.00  0.0000E+000  
  321.50  0.0000E+000  
  322.00  0.0000E+000  
  322.50  0.0000E+000  
  323.00  1.7245E-004  
  323.50  5.8426E-004  
  324.00  8.2125E-004  
  324.50  6.5159E-004  
  325.00  3.6072E-004  
  325.50  9.1091E-005  
  326.00  1.0335E-004  
  326.50  1.3090E-004  
  327.00  1.8182E-004  
  327.50  7.6783E-005  
  328.00  4.5211E-006  
  328.50  1.1051E-006  
  329.00  3.5346E-005  
  329.50  5.5661E-005  
  330.00  0.0000E+000  
  330.50  0.0000E+000  
  331.00  0.0000E+000  
  331.50  0.0000E+000  
  332.00  8.1944E-005  
  332.50  3.6692E-004  
  333.00  5.8844E-004  
  333.50  6.5282E-004  
  334.00  5.5021E-004  
  334.50  4.5812E-004  
  335.00  3.0773E-004  
  335.50  1.7657E-004  
  336.00  0.0000E+000  
  336.50  0.0000E+000  
  337.00  8.5491E-005  
  337.50  4.2242E-004  
  338.00  6.3671E-004  
  338.50  8.0340E-004  
  339.00  9.1441E-004  
  339.50  9.0748E-004  
  340.00  8.8971E-004  
  340.50  8.2529E-004  
  341.00  6.1291E-004  
  341.50  2.5020E-004  
  342.00  2.7001E-005  
  342.50  0.0000E+000  
  343.00  0.0000E+000  
  343.50  1.9066E-004  
  344.00  3.3160E-004  
  344.50  4.1153E-004  
  345.00  5.0303E-004  
  345.50  5.1957E-004  
  346.00  7.3352E-004  
  346.50  1.1046E-003  
  347.00  1.3839E-003  
  347.50  1.5045E-003  
  348.00  1.3275E-003  
  348.50  1.0655E-003  
  349.00  7.2704E-004  
  349.50  4.4753E-004  
  350.00  2.7988E-004  
  350.50  3.4305E-004  
  351.00  5.8448E-004  
  351.50  8.7031E-004  
  352.00  9.7412E-004  
  352.50  9.3236E-004  
  353.00  9.3566E-004  
  353.50  1.0508E-003  
  354.00  1.1753E-003  
  354.50  1.0872E-003  
  355.00  1.0457E-003  
  355.50  8.2430E-004  
  356.00  1.0762E-003  
  356.50  1.0144E-003  
  357.00  7.2050E-004  
  357.50  5.9513E-004  
  358.00  2.9527E-004  
  358.50  4.0937E-004  
  359.00  8.0792E-004  
  359.50  9.0058E-004  
  360.00  1.1760E-003  
  360.50  1.2818E-003  
  361.00  1.4256E-003  
  361.50  1.3427E-003  
  362.00  1.0010E-003  
  362.50  1.3573E-003  
  363.00  2.8912E-003  
  363.50  6.7168E-003  
  364.00  1.2026E-002  
  364.50  1.6343E-002  
  365.00  1.7819E-002  
  365.50  1.5742E-002  
  366.00  1.1260E-002  
  366.50  6.9925E-003  
  367.00  4.1117E-003  
  367.50  2.6320E-003  
  368.00  1.8462E-003  
  368.50  1.4369E-003  
  369.00  1.3386E-003  
  369.50  1.1913E-003  
  370.00  1.0880E-003  
  370.50  9.9759E-004  
  371.00  9.4438E-004  
  371.50  9.4936E-004  
  372.00  9.3575E-004  
  372.50  8.5438E-004  
  373.00  8.6090E-004  
  373.50  8.7659E-004  
  374.00  1.1240E-003  
  374.50  1.0934E-003  
  375.00  8.9590E-004  
  375.50  9.1324E-004  
  376.00  9.2828E-004  
  376.50  1.2756E-003  
  377.00  1.5458E-003  
  377.50  1.4820E-003  
  378.00  1.4416E-003  
  378.50  1.3389E-003  
  379.00  1.3099E-003  
  379.50  1.3735E-003  
  380.00  1.3208E-003  
  380.50  1.2634E-003  
  381.00  1.1669E-003  
  381.50  1.2006E-003  
  382.00  1.0937E-003  
  382.50  1.0595E-003  
  383.00  8.0105E-004  
  383.50  5.2981E-004  
  384.00  5.8456E-004  
  384.50  6.3283E-004  
  385.00  6.7283E-004  
  385.50  5.9092E-004  
  386.00  6.1143E-004  
  386.50  9.3435E-004  
  387.00  1.3022E-003  
  387.50  1.3665E-003  
  388.00  1.2938E-003  
  388.50  1.3009E-003  
  389.00  1.2631E-003  
  389.50  1.4645E-003  
  390.00  1.2420E-003  
  390.50  8.8036E-004  
  391.00  6.0837E-004  
  391.50  3.5951E-004  
  392.00  4.7902E-004  
  392.50  6.3467E-004  
  393.00  8.7023E-004  
  393.50  1.1075E-003  
  394.00  1.0982E-003  
  394.50  1.1215E-003  
  395.00  1.2014E-003  
  395.50  9.8860E-004  
  396.00  8.1875E-004  
  396.50  6.4073E-004  
  397.00  4.4144E-004  
  397.50  7.0902E-004  
  398.00  9.7066E-004  
  398.50  9.8717E-004  
  399.00  1.0940E-003  
  399.50  1.1741E-003  
  400.00  1.3574E-003  
  400.50  1.5256E-003  
  401.00  1.4432E-003  
  401.50  1.3406E-003  
  402.00  1.5457E-003  
  402.50  4.6079E-003  
  403.00  1.5105E-002  
  403.50  3.1865E-002  
  404.00  4.6986E-002  
  404.50  5.1643E-002  
  405.00  4.3452E-002  
  405.50  2.7405E-002  
  406.00  1.4239E-002  
  406.50  7.8909E-003  
  407.00  6.5668E-003  
  407.50  6.3160E-003  
  408.00  5.5837E-003  
  408.50  4.3955E-003  
  409.00  3.1510E-003  
  409.50  2.4098E-003  
  410.00  1.8824E-003  
  410.50  1.7604E-003  
  411.00  1.6028E-003  
  411.50  1.6685E-003  
  412.00  1.7926E-003  
  412.50  1.8249E-003  
  413.00  1.8456E-003  
  413.50  1.6294E-003  
  414.00  1.6169E-003  
  414.50  1.8681E-003  
  415.00  2.1633E-003  
  415.50  2.3829E-003  
  416.00  2.2741E-003  
  416.50  2.0821E-003  
  417.00  2.0900E-003  
  417.50  2.0824E-003  
  418.00  2.2214E-003  
  418.50  2.2281E-003  
  419.00  2.2040E-003  
  419.50  2.1932E-003  
  420.00  2.1567E-003  
  420.50  2.0381E-003  
  421.00  2.0165E-003  
  421.50  1.9952E-003  
  422.00  2.2057E-003  
  422.50  2.2974E-003  
  423.00  2.3623E-003  
  423.50  2.3432E-003  
  424.00  2.2918E-003  
  424.50  2.3741E-003  
  425.00  2.6333E-003  
  425.50  2.9924E-003  
  426.00  3.2330E-003  
  426.50  3.3724E-003  
  427.00  3.3048E-003  
  427.50  3.0744E-003  
  428.00  3.0336E-003  
  428.50  3.1045E-003  
  429.00  3.2098E-003  
  429.50  3.6375E-003  
  430.00  4.0313E-003  
  430.50  3.9922E-003  
  431.00  3.9246E-003  
  431.50  3.7194E-003  
  432.00  4.0542E-003  
  432.50  4.8990E-003  
  433.00  6.2258E-003  
  433.50  1.2731E-002  
  434.00  3.7780E-002  
  434.50  9.3880E-002  
  435.00  1.5917E-001  
  435.50  1.9557E-001  
  436.00  1.7489E-001  
  436.50  1.1802E-001  
  437.00  5.9461E-002  
  437.50  2.4497E-002  
  438.00  1.0918E-002  
  438.50  6.9937E-003  
  439.00  5.8095E-003  
  439.50  5.4332E-003  
  440.00  5.1127E-003  
  440.50  4.8571E-003  
  441.00  4.6466E-003  
  441.50  4.3874E-003  
  442.00  4.1785E-003  
  442.50  3.9587E-003  
  443.00  3.7284E-003  
  443.50  3.7848E-003  
  444.00  3.9381E-003  
  444.50  4.0759E-003  
  445.00  4.0881E-003  
  445.50  4.0219E-003  
  446.00  3.6937E-003  
  446.50  3.6115E-003  
  447.00  3.5372E-003  
  447.50  3.3822E-003  
  448.00  3.2250E-003  
  448.50  3.0512E-003  
  449.00  3.1198E-003  
  449.50  3.3099E-003  
  450.00  3.6007E-003  
  450.50  3.4514E-003  
  451.00  3.2995E-003  
  451.50  3.2579E-003  
  452.00  3.2438E-003  
  452.50  3.4787E-003  
  453.00  3.4382E-003  
  453.50  3.4393E-003  
  454.00  3.3098E-003  
  454.50  3.2290E-003  
  455.00  3.2363E-003  
  455.50  3.2575E-003  
  456.00  3.3440E-003  
  456.50  3.3024E-003  
  457.00  3.2202E-003  
  457.50  2.9288E-003  
  458.00  2.8236E-003  
  458.50  2.8141E-003  
  459.00  3.0157E-003  
  459.50  3.1323E-003  
  460.00  3.1897E-003  
  460.50  3.2673E-003  
  461.00  3.3878E-003  
  461.50  3.4831E-003  
  462.00  3.5126E-003  
  462.50  3.4394E-003  
  463.00  3.1687E-003  
  463.50  3.0103E-003  
  464.00  2.8509E-003  
  464.50  2.9651E-003  
  465.00  3.0165E-003  
  465.50  3.1347E-003  
  466.00  3.2985E-003  
  466.50  3.5115E-003  
  467.00  3.6309E-003  
  467.50  3.5307E-003  
  468.00  3.1974E-003  
  468.50  2.8769E-003  
  469.00  2.7231E-003  
  469.50  2.7429E-003  
  470.00  2.9272E-003  
  470.50  3.0404E-003  
  471.00  3.0754E-003  
  471.50  3.0704E-003  
  472.00  3.0692E-003  
  472.50  3.1625E-003  
  473.00  3.1466E-003  
  473.50  3.0472E-003  
  474.00  2.9836E-003  
  474.50  3.0108E-003  
  475.00  3.1146E-003  
  475.50  3.1425E-003  
  476.00  3.0983E-003  
  476.50  3.1511E-003  
  477.00  3.2727E-003  
  477.50  3.4126E-003  
  478.00  3.5989E-003  
  478.50  3.7762E-003  
  479.00  4.1650E-003  
  479.50  4.6776E-003  
  480.00  5.2265E-003  
  480.50  5.8444E-003  
  481.00  6.7005E-003  
  481.50  7.9528E-003  
  482.00  9.8641E-003  
  482.50  1.2301E-002  
  483.00  1.4998E-002  
  483.50  1.7851E-002  
  484.00  2.0811E-002  
  484.50  2.3954E-002  
  485.00  2.7141E-002  
  485.50  2.9778E-002  
  486.00  3.1835E-002  
  486.50  3.2691E-002  
  487.00  3.2595E-002  
  487.50  3.1530E-002  
  488.00  2.9719E-002  
  488.50  2.7576E-002  
  489.00  2.5504E-002  
  489.50  2.3839E-002  
  490.00  2.2664E-002  
  490.50  2.2062E-002  
  491.00  2.1502E-002  
  491.50  2.0866E-002  
  492.00  1.9905E-002  
  492.50  1.8788E-002  
  493.00  1.7602E-002  
  493.50  1.6474E-002  
  494.00  1.5449E-002  
  494.50  1.4504E-002  
  495.00  1.3708E-002  
  495.50  1.2803E-002  
  496.00  1.2005E-002  
  496.50  1.1272E-002  
  497.00  1.0608E-002  
  497.50  1.0033E-002  
  498.00  9.2940E-003  
  498.50  8.6086E-003  
  499.00  7.7903E-003  
  499.50  7.0562E-003  
  500.00  6.3719E-003  
  500.50  5.8127E-003  
  501.00  5.3878E-003  
  501.50  5.0330E-003  
  502.00  4.7325E-003  
  502.50  4.3360E-003  
  503.00  3.9801E-003  
  503.50  3.6606E-003  
  504.00  3.4404E-003  
  504.50  3.3288E-003  
  505.00  3.1971E-003  
  505.50  3.0446E-003  
  506.00  2.7681E-003  
  506.50  2.5218E-003  
  507.00  2.3514E-003  
  507.50  2.4053E-003  
  508.00  2.5061E-003  
  508.50  2.5619E-003  
  509.00  2.4872E-003  
  509.50  2.4123E-003  
  510.00  2.3748E-003  
  510.50  2.4312E-003  
  511.00  2.4241E-003  
  511.50  2.4779E-003  
  512.00  2.5348E-003  
  512.50  2.5199E-003  
  513.00  2.4936E-003  
  513.50  2.3719E-003  
  514.00  2.2360E-003  
  514.50  2.1335E-003  
  515.00  1.9874E-003  
  515.50  1.9145E-003  
  516.00  1.9337E-003  
  516.50  1.9262E-003  
  517.00  1.9767E-003  
  517.50  2.0740E-003  
  518.00  2.1350E-003  
  518.50  2.1689E-003  
  519.00  1.9864E-003  
  519.50  1.8631E-003  
  520.00  1.8701E-003  
  520.50  1.9841E-003  
  521.00  2.0225E-003  
  521.50  2.0195E-003  
  522.00  1.9442E-003  
  522.50  1.9459E-003  
  523.00  1.9474E-003  
  523.50  1.9875E-003  
  524.00  2.0204E-003  
  524.50  2.1094E-003  
  525.00  2.1114E-003  
  525.50  2.1683E-003  
  526.00  2.2032E-003  
  526.50  2.3843E-003  
  527.00  2.4766E-003  
  527.50  2.5302E-003  
  528.00  2.5709E-003  
  528.50  2.5858E-003  
  529.00  2.7107E-003  
  529.50  2.7493E-003  
  530.00  2.8427E-003  
  530.50  3.0470E-003  
  531.00  3.3611E-003  
  531.50  3.9432E-003  
  532.00  4.8167E-003  
  532.50  6.0046E-003  
  533.00  6.9466E-003  
  533.50  7.2834E-003  
  534.00  7.1136E-003  
  534.50  6.9814E-003  
  535.00  7.4318E-003  
  535.50  8.7556E-003  
  536.00  1.1070E-002  
  536.50  1.4490E-002  
  537.00  1.8393E-002  
  537.50  2.2414E-002  
  538.00  2.6762E-002  
  538.50  3.2775E-002  
  539.00  4.2642E-002  
  539.50  5.8695E-002  
  540.00  8.2772E-002  
  540.50  1.1253E-001  
  541.00  1.3947E-001  
  541.50  1.5467E-001  
  542.00  1.5386E-001  
  542.50  1.4436E-001  
  543.00  1.3559E-001  
  543.50  1.3234E-001  
  544.00  1.3885E-001  
  544.50  1.5878E-001  
  545.00  1.9278E-001  
  545.50  2.2296E-001  
  546.00  2.2296E-001  
  546.50  1.9348E-001  
  547.00  1.4980E-001  
  547.50  1.1382E-001  
  548.00  9.3234E-002  
  548.50  8.0219E-002  
  549.00  7.0304E-002  
  549.50  6.1886E-002  
  550.00  5.4187E-002  
  550.50  4.7100E-002  
  551.00  4.0537E-002  
  551.50  3.4866E-002  
  552.00  3.0053E-002  
  552.50  2.6159E-002  
  553.00  2.2919E-002  
  553.50  2.0123E-002  
  554.00  1.7505E-002  
  554.50  1.5096E-002  
  555.00  1.2853E-002  
  555.50  1.1205E-002  
  556.00  9.9509E-003  
  556.50  8.9541E-003  
  557.00  8.1812E-003  
  557.50  7.5142E-003  
  558.00  7.0423E-003  
  558.50  6.7043E-003  
  559.00  6.3567E-003  
  559.50  6.0259E-003  
  560.00  5.7944E-003  
  560.50  5.4980E-003  
  561.00  5.2640E-003  
  561.50  4.9780E-003  
  562.00  4.7106E-003  
  562.50  4.5136E-003  
  563.00  4.3638E-003  
  563.50  4.2470E-003  
  564.00  4.2579E-003  
  564.50  4.0950E-003  
  565.00  3.8586E-003  
  565.50  3.5875E-003  
  566.00  3.4459E-003  
  566.50  3.5269E-003  
  567.00  3.6860E-003  
  567.50  3.7921E-003  
  568.00  3.7610E-003  
  568.50  3.5038E-003  
  569.00  3.2041E-003  
  569.50  3.0224E-003  
  570.00  2.9227E-003  
  570.50  2.7902E-003  
  571.00  2.6584E-003  
  571.50  2.6662E-003  
  572.00  2.7026E-003  
  572.50  2.7864E-003  
  573.00  2.7797E-003  
  573.50  2.8770E-003  
  574.00  3.1609E-003  
  574.50  3.7456E-003  
  575.00  5.9621E-003  
  575.50  1.1782E-002  
  576.00  2.0725E-002  
  576.50  2.8279E-002  
  577.00  3.0635E-002  
  577.50  2.8883E-002  
  578.00  2.8309E-002  
  578.50  3.1373E-002  
  579.00  3.4353E-002  
  579.50  3.4575E-002  
  580.00  3.2173E-002  
  580.50  2.9306E-002  
  581.00  2.8012E-002  
  581.50  2.8708E-002  
  582.00  3.1282E-002  
  582.50  3.4053E-002  
  583.00  3.5634E-002  
  583.50  3.6062E-002  
  584.00  3.5516E-002  
  584.50  3.4316E-002  
  585.00  3.3494E-002  
  585.50  3.5341E-002  
  586.00  4.1356E-002  
  586.50  5.0480E-002  
  587.00  5.6428E-002  
  587.50  5.4551E-002  
  588.00  4.5244E-002  
  588.50  3.4304E-002  
  589.00  2.6649E-002  
  589.50  2.3107E-002  
  590.00  2.3079E-002  
  590.50  2.5011E-002  
  591.00  2.8875E-002  
  591.50  3.4941E-002  
  592.00  4.2628E-002  
  592.50  4.9024E-002  
  593.00  5.0655E-002  
  593.50  4.5526E-002  
  594.00  3.6858E-002  
  594.50  2.8555E-002  
  595.00  2.3246E-002  
  595.50  2.0357E-002  
  596.00  1.9085E-002  
  596.50  1.8817E-002  
  597.00  1.9699E-002  
  597.50  2.2253E-002  
  598.00  2.6394E-002  
  598.50  3.1204E-002  
  599.00  3.5079E-002  
  599.50  3.5458E-002  
  600.00  3.2641E-002  
  600.50  2.7679E-002  
  601.00  2.2787E-002  
  601.50  1.8680E-002  
  602.00  1.5896E-002  
  602.50  1.4163E-002  
  603.00  1.3719E-002  
  603.50  1.3914E-002  
  604.00  1.4503E-002  
  604.50  1.5266E-002  
  605.00  1.6253E-002  
  605.50  1.7573E-002  
  606.00  1.9467E-002  
  606.50  2.2216E-002  
  607.00  2.6248E-002  
  607.50  3.1969E-002  
  608.00  4.0981E-002  
  608.50  5.6701E-002  
  609.00  8.7268E-002  
  609.50  1.5295E-001  
  610.00  2.6090E-001  
  610.50  3.9099E-001  
  611.00  4.8142E-001  
  611.50  4.8694E-001  
  612.00  4.0847E-001  
  612.50  3.0751E-001  
  613.00  2.3078E-001  
  613.50  1.8719E-001  
  614.00  1.6279E-001  
  614.50  1.4214E-001  
  615.00  1.1992E-001  
  615.50  9.6236E-002  
  616.00  7.5024E-002  
  616.50  5.8060E-002  
  617.00  4.6450E-002  
  617.50  3.8461E-002  
  618.00  3.3460E-002  
  618.50  3.0616E-002  
  619.00  2.9157E-002  
  619.50  2.9015E-002  
  620.00  2.9736E-002  
  620.50  3.0637E-002  
  621.00  3.1378E-002  
  621.50  3.1747E-002  
  622.00  3.2308E-002  
  622.50  3.3396E-002  
  623.00  3.4957E-002  
  623.50  3.6476E-002  
  624.00  3.7635E-002  
  624.50  3.8269E-002  
  625.00  3.8819E-002  
  625.50  3.9417E-002  
  626.00  3.9598E-002  
  626.50  3.9536E-002  
  627.00  3.8937E-002  
  627.50  3.8121E-002  
  628.00  3.7366E-002  
  628.50  3.7505E-002  
  629.00  4.0118E-002  
  629.50  4.6467E-002  
  630.00  5.6196E-002  
  630.50  6.4138E-002  
  631.00  6.4570E-002  
  631.50  5.4963E-002  
  632.00  4.0279E-002  
  632.50  2.6487E-002  
  633.00  1.7548E-002  
  633.50  1.2732E-002  
  634.00  1.0763E-002  
  634.50  9.5176E-003  
  635.00  8.7699E-003  
  635.50  8.1907E-003  
  636.00  7.8606E-003  
  636.50  7.5825E-003  
  637.00  7.3494E-003  
  637.50  6.9423E-003  
  638.00  6.5148E-003  
  638.50  5.9459E-003  
  639.00  5.7202E-003  
  639.50  5.7530E-003  
  640.00  5.8786E-003  
  640.50  5.7162E-003  
  641.00  5.4970E-003  
  641.50  5.5422E-003  
  642.00  5.8083E-003  
  642.50  6.0463E-003  
  643.00  6.1084E-003  
  643.50  6.2758E-003  
  644.00  6.3982E-003  
  644.50  6.0190E-003  
  645.00  5.5891E-003  
  645.50  5.2760E-003  
  646.00  5.3052E-003  
  646.50  5.3394E-003  
  647.00  5.4252E-003  
  647.50  5.5894E-003  
  648.00  5.9674E-003  
  648.50  6.7528E-003  
  649.00  8.9550E-003  
  649.50  1.2755E-002  
  650.00  1.6676E-002  
  650.50  1.8354E-002  
  651.00  1.6558E-002  
  651.50  1.3326E-002  
  652.00  1.0985E-002  
  652.50  1.0309E-002  
  653.00  9.9904E-003  
  653.50  9.1921E-003  
  654.00  8.0065E-003  
  654.50  6.9467E-003  
  655.00  6.2034E-003  
  655.50  6.0581E-003  
  656.00  6.0913E-003  
  656.50  6.4388E-003  
  657.00  6.5603E-003  
  657.50  6.6623E-003  
  658.00  6.4976E-003  
  658.50  5.9668E-003  
  659.00  5.3238E-003  
  659.50  4.4959E-003  
  660.00  4.0481E-003  
  660.50  4.3447E-003  
  661.00  5.8398E-003  
  661.50  8.1134E-003  
  662.00  1.0252E-002  
  662.50  1.1364E-002  
  663.00  1.0954E-002  
  663.50  9.1930E-003  
  664.00  7.0129E-003  
  664.50  5.4193E-003  
  665.00  4.7357E-003  
  665.50  4.1697E-003  
  666.00  3.9931E-003  
  666.50  3.8761E-003  
  667.00  3.9903E-003  
  667.50  3.6669E-003  
  668.00  3.7677E-003  
  668.50  3.7452E-003  
  669.00  3.6219E-003  
  669.50  3.2843E-003  
  670.00  3.4528E-003  
  670.50  3.7459E-003  
  671.00  3.9425E-003  
  671.50  3.9926E-003  
  672.00  3.9766E-003  
  672.50  3.6394E-003  
  673.00  3.3966E-003  
  673.50  3.2003E-003  
  674.00  3.2340E-003  
  674.50  3.1443E-003  
  675.00  3.1161E-003  
  675.50  2.9399E-003  
  676.00  2.8108E-003  
  676.50  2.9604E-003  
  677.00  2.8294E-003  
  677.50  2.7689E-003  
  678.00  2.4085E-003  
  678.50  2.7275E-003  
  679.00  2.8644E-003  
  679.50  3.1382E-003  
  680.00  3.0724E-003  
  680.50  3.2710E-003  
  681.00  3.4309E-003  
  681.50  3.4659E-003  
  682.00  3.1762E-003  
  682.50  2.8723E-003  
  683.00  2.8433E-003  
  683.50  2.7545E-003  
  684.00  2.8905E-003  
  684.50  3.3669E-003  
  685.00  3.9158E-003  
  685.50  4.9841E-003  
  686.00  6.1454E-003  
  686.50  8.1917E-003  
  687.00  1.0089E-002  
  687.50  1.0962E-002  
  688.00  1.0326E-002  
  688.50  8.5602E-003  
  689.00  6.4971E-003  
  689.50  4.7550E-003  
  690.00  3.5851E-003  
  690.50  2.8808E-003  
  691.00  2.3419E-003  
  691.50  2.2153E-003  
  692.00  2.7781E-003  
  692.50  4.2824E-003  
  693.00  6.0169E-003  
  693.50  7.0671E-003  
  694.00  6.6703E-003  
  694.50  5.1913E-003  
  695.00  3.6072E-003  
  695.50  2.5341E-003  
  696.00  2.2786E-003  
  696.50  2.6372E-003  
  697.00  2.4123E-003  
  697.50  1.9803E-003  
  698.00  1.4167E-003  
  698.50  1.3750E-003  
  699.00  1.1524E-003  
  699.50  1.1031E-003  
  700.00  1.2488E-003  
  700.50  1.6999E-003  
  701.00  1.9467E-003  
  701.50  2.1112E-003  
  702.00  2.2701E-003  
  702.50  2.5602E-003  
  703.00  2.9889E-003  
  703.50  3.8091E-003  
  704.00  5.1902E-003  
  704.50  6.7579E-003  
  705.00  8.9626E-003  
  705.50  1.2674E-002  
  706.00  1.7832E-002  
  706.50  2.2775E-002  
  707.00  2.5343E-002  
  707.50  2.5852E-002  
  708.00  2.6171E-002  
  708.50  2.7321E-002  
  709.00  2.6923E-002  
  709.50  2.2750E-002  
  710.00  1.6726E-002  
  710.50  1.2664E-002  
  711.00  1.3263E-002  
  711.50  1.7576E-002  
  712.00  2.1615E-002  
  712.50  2.1873E-002  
  713.00  1.7158E-002  
  713.50  1.0917E-002  
  714.00  5.9062E-003  
  714.50  3.0396E-003  
  715.00  1.6676E-003  
  715.50  1.2274E-003  
  716.00  1.0336E-003  
  716.50  7.6400E-004  
  717.00  7.7325E-004  
  717.50  7.1829E-004  
  718.00  8.6788E-004  
  718.50  1.1152E-003  
  719.00  1.3708E-003  
  719.50  1.3774E-003  
  720.00  1.0925E-003  
  720.50  1.1609E-003  
  721.00  1.4246E-003  
  721.50  1.4376E-003  
  722.00  1.2150E-003  
  722.50  7.4544E-004  
  723.00  6.5756E-004  
  723.50  6.3611E-004  
  724.00  7.4853E-004  
  724.50  4.1633E-004  
  725.00  1.5541E-004  
  725.50  5.9026E-005  
  726.00  4.9534E-004  
  726.50  9.0801E-004  
  727.00  1.2113E-003  
  727.50  1.1282E-003  
  728.00  1.0016E-003  
  728.50  9.9133E-004  
  729.00  1.5135E-003  
  729.50  1.8182E-003  
  730.00  1.5530E-003  
  730.50  7.8702E-004  
  731.00  2.3926E-004  
  731.50  6.7712E-005  
  732.00  0.0000E+000  
  732.50  0.0000E+000  
  733.00  3.0959E-004  
  733.50  1.2908E-003  
  734.00  1.8780E-003  
  734.50  1.5217E-003  
  735.00  7.2389E-004  
  735.50  4.5865E-005  
  736.00  1.7162E-004  
  736.50  3.2013E-004  
  737.00  8.4153E-004  
  737.50  1.4425E-003  
  738.00  1.9329E-003  
  738.50  1.7940E-003  
  739.00  1.3272E-003  
  739.50  7.6439E-004  
  740.00  4.0870E-004  
  740.50  4.0480E-004  
  741.00  6.0240E-004  
  741.50  7.0135E-004  
  742.00  9.8073E-004  
  742.50  1.2508E-003  
  743.00  1.3898E-003  
  743.50  9.8157E-004  
  744.00  5.7023E-004  
  744.50  3.2530E-004  
  745.00  2.3071E-004  
  745.50  6.5136E-004  
  746.00  5.1299E-004  
  746.50  3.8406E-004  
  747.00  2.0417E-004  
  747.50  6.2590E-004  
  748.00  7.8669E-004  
  748.50  5.2856E-004  
  749.00  4.0728E-005  
  749.50  6.7212E-004  
  750.00  2.3400E-003  
  750.50  3.6701E-003  
  751.00  3.6523E-003  
  751.50  2.3845E-003  
  752.00  1.1991E-003  
  752.50  2.5639E-004  
  753.00  0.0000E+000  
  753.50  0.0000E+000  
  754.00  0.0000E+000  
  754.50  1.5219E-004  
  755.00  6.9339E-004  
  755.50  8.1041E-004  
  756.00  6.0596E-004  
  756.50  2.7596E-004  
  757.00  5.6102E-004  
  757.50  6.8300E-004  
  758.00  5.0471E-004  
  758.50  4.6087E-004  
  759.00  4.1765E-004  
  759.50  5.5761E-004  
  760.00  9.7436E-005  
  760.50  1.1168E-004  
  761.00  5.8391E-004  
  761.50  1.2341E-003  
  762.00  1.1869E-003  
  762.50  2.1644E-003  
  763.00  4.7414E-003  
  763.50  7.0338E-003  
  764.00  6.5559E-003  
  764.50  4.2633E-003  
  765.00  2.0527E-003  
  765.50  9.3650E-004  
  766.00  0.0000E+000  
  766.50  0.0000E+000  
  767.00  0.0000E+000  
  767.50  0.0000E+000  
  768.00  0.0000E+000  
  768.50  0.0000E+000  
  769.00  0.0000E+000  
  769.50  5.4942E-005  
  770.00  1.0593E-003  
  770.50  1.4166E-003  
  771.00  1.9189E-003  
  771.50  2.2166E-003  
  772.00  2.8321E-003  
  772.50  2.7889E-003  
  773.00  2.7732E-003  
  773.50  2.1889E-003  
  774.00  1.7931E-003  
  774.50  6.8293E-004  
  775.00  0.0000E+000  
  775.50  0.0000E+000  
  776.00  0.0000E+000  
  776.50  5.6463E-005  
  777.00  3.1174E-004  
  777.50  6.2567E-004  
  778.00  3.4553E-004  
  778.50  1.9953E-005  
  779.00  0.0000E+000  
  779.50  0.0000E+000  
  780.00  0.0000E+000  
  780.50  6.2308E-004  
  781.00  9.1778E-004  
  781.50  5.5227E-004  
  782.00  0.0000E+000  
  782.50  0.0000E+000  
  783.00  0.0000E+000  
  783.50  1.9514E-004  
  784.00  1.6672E-004  
  784.50  3.1303E-004  
  785.00  3.8384E-004  
  785.50  2.0670E-004  
  786.00  0.0000E+000  
  786.50  0.0000E+000  
  787.00  0.0000E+000  
  787.50  0.0000E+000  
  788.00  0.0000E+000  
  788.50  0.0000E+000  
  789.00  6.8425E-004  
  789.50  9.7075E-004  
  790.00  4.7403E-004  
  790.50  7.3027E-006  
  791.00  1.3893E-004  
  791.50  2.3471E-004  
  792.00  1.5564E-005  
  792.50  0.0000E+000  
  793.00  0.0000E+000  
  793.50  2.3608E-004  
  794.00  9.8537E-004  
  794.50  1.6174E-003  
  795.00  1.4756E-003  
  795.50  8.4171E-004  
  796.00  1.4894E-004  
  796.50  5.8963E-005  
  797.00  1.0179E-003  
  797.50  1.7840E-003  
  798.00  2.3859E-003  
  798.50  1.8571E-003  
  799.00  8.4582E-004  
  799.50  1.0729E-003  
  800.00  2.4927E-003  
  800.50  4.2050E-003  
  801.00  4.4087E-003  
  801.50  3.2390E-003  
  802.00  1.3764E-003  
  802.50  3.5565E-004  
  803.00  2.1034E-004  
  803.50  0.0000E+000  
  804.00  0.0000E+000  
  804.50  0.0000E+000  
  805.00  5.6484E-005  
  805.50  6.1221E-004  
  806.00  1.0998E-003  
  806.50  1.0120E-004  
  807.00  0.0000E+000  
  807.50  0.0000E+000  
  808.00  3.3824E-004  
  808.50  7.9822E-004  
  809.00  2.2330E-003  
  809.50  4.4040E-003  
  810.00  5.9277E-003  
  810.50  8.6527E-003  
  811.00  1.2063E-002  
  811.50  1.3713E-002  
  812.00  1.0648E-002  
  812.50  5.4806E-003  
  813.00  1.5959E-003  
  813.50  6.8002E-004  
  814.00  0.0000E+000  
  814.50  0.0000E+000  
  815.00  0.0000E+000  
  815.50  3.3198E-004  
  816.00  7.6675E-004  
  816.50  2.2086E-004  
  817.00  0.0000E+000  
  817.50  0.0000E+000  
  818.00  0.0000E+000  
  818.50  0.0000E+000  
  819.00  0.0000E+000  
  819.50  2.2404E-005  
  820.00  5.1585E-004  
  820.50  7.8240E-004  
  821.00  1.2262E-003  
  821.50  1.1511E-003  
  822.00  3.0640E-005  
  822.50  0.0000E+000  
  823.00  0.0000E+000  
  823.50  0.0000E+000  
  824.00  1.7361E-004  
  824.50  6.1393E-004  
  825.00  1.3963E-003  
  825.50  2.5607E-003  
  826.00  2.5005E-003  
  826.50  1.7190E-003  
  827.00  4.0597E-004  
  827.50  2.4511E-004  
  828.00  8.3016E-004  
  828.50  8.7123E-004  
  829.00  2.0221E-005  
  829.50  0.0000E+000  
  830.00  0.0000E+000  
  830.50  0.0000E+000  
  831.00  0.0000E+000  
  831.50  0.0000E+000  
  832.00  0.0000E+000  
  832.50  2.0240E-004  
  833.00  5.9580E-004  
  833.50  5.2838E-004  
  834.00  0.0000E+000  
  834.50  0.0000E+000  
  835.00  0.0000E+000  
  835.50  0.0000E+000  
  836.00  0.0000E+000  
  836.50  5.6341E-004  
  837.00  1.3019E-005  
  837.50  0.0000E+000  
  838.00  0.0000E+000  
  838.50  0.0000E+000  
  839.00  1.0729E-003  
  839.50  2.0491E-003  
  840.00  2.6476E-003  
  840.50  3.8140E-003  
  841.00  6.4199E-003  
  841.50  9.5133E-003  
  842.00  8.7156E-003  
  842.50  6.6685E-003  
  843.00  5.4025E-003  
  843.50  3.4600E-003  
  844.00  2.1284E-003  
  844.50  7.3140E-004  
  845.00  0.0000E+000  
  845.50  1.3671E-004  
  846.00  3.0069E-004  
  846.50  3.9524E-004  
  847.00  0.0000E+000  
  847.50  0.0000E+000  
  848.00  0.0000E+000  
  848.50  1.1191E-003  
  849.00  3.0372E-004  
  849.50  3.2021E-004  
  850.00  6.0604E-004  
  850.50  1.1934E-003  
  851.00  1.5705E-003  
  851.50  3.2952E-003  
  852.00  3.5132E-003  
  852.50  1.1433E-003  
  853.00  0.0000E+000  
  853.50  0.0000E+000  
  854.00  0.0000E+000  
  854.50  8.3220E-004  
  855.00  2.0463E-003  
  855.50  1.1023E-003  
  856.00  9.2557E-004  
  856.50  1.1147E-003  
  857.00  2.4899E-004  
  857.50  0.0000E+000  
  858.00  0.0000E+000  
  858.50  9.8097E-004  
  859.00  1.8498E-003  
  859.50  4.9051E-004  
  860.00  2.5540E-004  
  860.50  1.9117E-003  
  861.00  1.1656E-003  
  861.50  2.4116E-004  
  862.00  2.6277E-006  
  862.50  0.0000E+000  
  863.00  0.0000E+000  
  863.50  0.0000E+000  
  864.00  3.1796E-004  
  864.50  9.5563E-004  
  865.00  9.2840E-004  
  865.50  2.4110E-004  
  866.00  0.0000E+000  
  866.50  0.0000E+000  
  867.00  2.9854E-004  
  867.50  2.0272E-004  
  868.00  1.2898E-005  
  868.50  2.6567E-004  
  869.00  1.9046E-003  
  869.50  3.7845E-003  
  870.00  9.0622E-003  
  870.50  1.1029E-002  
  871.00  8.1474E-003  
  871.50  5.1448E-003  
  872.00  3.1614E-003  
  872.50  2.2621E-003  
  873.00  1.4985E-003  
  873.50  2.6423E-003  
  874.00  2.5982E-003  
  874.50  1.5686E-003  
  875.00  1.1102E-003  
  875.50  1.8426E-003  
  876.00  9.9381E-004  
  876.50  0.0000E+000  
  877.00  0.0000E+000  
  877.50  0.0000E+000  
  878.00  0.0000E+000  
  878.50  3.3174E-004  
  879.00  1.5053E-004  
  879.50  5.2668E-005  
  880.00  0.0000E+000  
  880.50  0.0000E+000  
  881.00  1.3859E-003  
  881.50  3.7774E-003  
  882.00  2.1973E-003  
  882.50  0.0000E+000  
  883.00  0.0000E+000  
  883.50  0.0000E+000  
  884.00  1.5903E-004  
  884.50  1.0878E-003  
  885.00  2.2619E-004  
  885.50  0.0000E+000  
  886.00  2.0207E-003  
  886.50  4.9133E-003  
  887.00  7.3185E-003  
  887.50  5.7055E-003  
  888.00  8.2850E-004  
  888.50  0.0000E+000  
  889.00  0.0000E+000  
  889.50  0.0000E+000  
  890.00  0.0000E+000  
  890.50  0.0000E+000  
  891.00  2.6990E-004  
  891.50  0.0000E+000  
  892.00  0.0000E+000  
  892.50  2.0314E-004  
  893.00  1.6877E-003  
  893.50  3.8172E-004  
  894.00  0.0000E+000  
  894.50  0.0000E+000  
  895.00  1.8965E-003  
  895.50  0.0000E+000  
  896.00  2.1195E-004  
  896.50  8.4936E-004  
  897.00  1.1133E-003  
  897.50  3.1653E-003  
  898.00  2.8754E-003  
  898.50  1.1735E-003  
  899.00  5.5275E-004  
  899.50  2.6849E-005  
