
# From lspdd.org
# 
# Name: INC GE PAR20 Domestique
# Indice spectral Valeur 
# MSI 0.27 
# SLI 0.48 
# IPI 1.01 
# Pourcentage de bleu 10.9 
# Caractéristique Valeur 
# CCT calculée (K) 2422 
# CCT du fabricant (K) 2400 
# Tension (V) 120 
# Puissance (W) 50.0 
# Efficacité lumineuse (Lum/W) ND 
#
# Image: '/app/system/img_2s/2759/medium_image2.jpg?1612236561'
# Image: '/app/system/img_1s/2759/medium_image1.jpg?1612236558'
# 

  273.00  0.0000E+000  
  273.50  0.0000E+000  
  274.00  0.0000E+000  
  274.50  0.0000E+000  
  275.00  0.0000E+000  
  275.50  0.0000E+000  
  276.00  0.0000E+000  
  276.50  0.0000E+000  
  277.00  0.0000E+000  
  277.50  0.0000E+000  
  278.00  0.0000E+000  
  278.50  0.0000E+000  
  279.00  0.0000E+000  
  279.50  0.0000E+000  
  280.00  0.0000E+000  
  280.50  0.0000E+000  
  281.00  0.0000E+000  
  281.50  0.0000E+000  
  282.00  0.0000E+000  
  282.50  0.0000E+000  
  283.00  0.0000E+000  
  283.50  0.0000E+000  
  284.00  0.0000E+000  
  284.50  0.0000E+000  
  285.00  0.0000E+000  
  285.50  0.0000E+000  
  286.00  0.0000E+000  
  286.50  0.0000E+000  
  287.00  0.0000E+000  
  287.50  0.0000E+000  
  288.00  0.0000E+000  
  288.50  0.0000E+000  
  289.00  0.0000E+000  
  289.50  0.0000E+000  
  290.00  0.0000E+000  
  290.50  0.0000E+000  
  291.00  0.0000E+000  
  291.50  0.0000E+000  
  292.00  0.0000E+000  
  292.50  0.0000E+000  
  293.00  0.0000E+000  
  293.50  0.0000E+000  
  294.00  0.0000E+000  
  294.50  0.0000E+000  
  295.00  0.0000E+000  
  295.50  0.0000E+000  
  296.00  0.0000E+000  
  296.50  0.0000E+000  
  297.00  0.0000E+000  
  297.50  0.0000E+000  
  298.00  0.0000E+000  
  298.50  0.0000E+000  
  299.00  0.0000E+000  
  299.50  0.0000E+000  
  300.00  0.0000E+000  
  300.50  0.0000E+000  
  301.00  0.0000E+000  
  301.50  0.0000E+000  
  302.00  5.0663E-005  
  302.50  4.1279E-004  
  303.00  3.7559E-004  
  303.50  8.0569E-005  
  304.00  0.0000E+000  
  304.50  0.0000E+000  
  305.00  0.0000E+000  
  305.50  0.0000E+000  
  306.00  0.0000E+000  
  306.50  0.0000E+000  
  307.00  0.0000E+000  
  307.50  0.0000E+000  
  308.00  0.0000E+000  
  308.50  0.0000E+000  
  309.00  0.0000E+000  
  309.50  0.0000E+000  
  310.00  0.0000E+000  
  310.50  0.0000E+000  
  311.00  0.0000E+000  
  311.50  0.0000E+000  
  312.00  0.0000E+000  
  312.50  0.0000E+000  
  313.00  0.0000E+000  
  313.50  0.0000E+000  
  314.00  0.0000E+000  
  314.50  0.0000E+000  
  315.00  0.0000E+000  
  315.50  0.0000E+000  
  316.00  1.9856E-005  
  316.50  1.2733E-004  
  317.00  2.6476E-004  
  317.50  2.7252E-004  
  318.00  1.1158E-004  
  318.50  6.1098E-005  
  319.00  7.8230E-005  
  319.50  0.0000E+000  
  320.00  0.0000E+000  
  320.50  0.0000E+000  
  321.00  0.0000E+000  
  321.50  0.0000E+000  
  322.00  0.0000E+000  
  322.50  3.6505E-004  
  323.00  3.3097E-004  
  323.50  7.1072E-005  
  324.00  0.0000E+000  
  324.50  0.0000E+000  
  325.00  0.0000E+000  
  325.50  0.0000E+000  
  326.00  0.0000E+000  
  326.50  0.0000E+000  
  327.00  6.5157E-006  
  327.50  1.7964E-004  
  328.00  3.9277E-004  
  328.50  4.3212E-004  
  329.00  2.6015E-004  
  329.50  2.7910E-005  
  330.00  1.6251E-004  
  330.50  4.8832E-004  
  331.00  5.1543E-004  
  331.50  4.6580E-004  
  332.00  2.4269E-004  
  332.50  1.7996E-004  
  333.00  2.9659E-004  
  333.50  4.6766E-004  
  334.00  6.7658E-004  
  334.50  6.1434E-004  
  335.00  3.5398E-004  
  335.50  3.7625E-004  
  336.00  3.1974E-004  
  336.50  3.9910E-004  
  337.00  6.9873E-004  
  337.50  7.6589E-004  
  338.00  1.2001E-003  
  338.50  1.4489E-003  
  339.00  1.4821E-003  
  339.50  1.4019E-003  
  340.00  1.2001E-003  
  340.50  9.9568E-004  
  341.00  6.4353E-004  
  341.50  2.4722E-004  
  342.00  1.6009E-004  
  342.50  3.6584E-004  
  343.00  5.3395E-004  
  343.50  8.5900E-004  
  344.00  6.6636E-004  
  344.50  3.7859E-004  
  345.00  5.2262E-004  
  345.50  4.6793E-004  
  346.00  5.3214E-004  
  346.50  6.2649E-004  
  347.00  2.0823E-004  
  347.50  3.9033E-004  
  348.00  6.8796E-004  
  348.50  6.9751E-004  
  349.00  7.7624E-004  
  349.50  8.0874E-004  
  350.00  8.4286E-004  
  350.50  1.1359E-003  
  351.00  1.2762E-003  
  351.50  1.1534E-003  
  352.00  1.2475E-003  
  352.50  1.2454E-003  
  353.00  1.2796E-003  
  353.50  1.3830E-003  
  354.00  1.4140E-003  
  354.50  1.4301E-003  
  355.00  1.4977E-003  
  355.50  1.0923E-003  
  356.00  8.3651E-004  
  356.50  7.0912E-004  
  357.00  5.9115E-004  
  357.50  8.4306E-004  
  358.00  1.0372E-003  
  358.50  1.1765E-003  
  359.00  1.3617E-003  
  359.50  1.4080E-003  
  360.00  1.5511E-003  
  360.50  1.5610E-003  
  361.00  1.5551E-003  
  361.50  1.6050E-003  
  362.00  1.4285E-003  
  362.50  1.4245E-003  
  363.00  1.3144E-003  
  363.50  1.5247E-003  
  364.00  1.8806E-003  
  364.50  2.0627E-003  
  365.00  2.1326E-003  
  365.50  2.0991E-003  
  366.00  2.2442E-003  
  366.50  2.5322E-003  
  367.00  2.8950E-003  
  367.50  3.0897E-003  
  368.00  3.0918E-003  
  368.50  2.9249E-003  
  369.00  2.6066E-003  
  369.50  2.2984E-003  
  370.00  2.1590E-003  
  370.50  2.1745E-003  
  371.00  2.4155E-003  
  371.50  2.5998E-003  
  372.00  2.9827E-003  
  372.50  3.3375E-003  
  373.00  3.4337E-003  
  373.50  3.6866E-003  
  374.00  3.4801E-003  
  374.50  3.3475E-003  
  375.00  3.3552E-003  
  375.50  3.0191E-003  
  376.00  2.9983E-003  
  376.50  2.9245E-003  
  377.00  2.9972E-003  
  377.50  3.2607E-003  
  378.00  3.3168E-003  
  378.50  3.3596E-003  
  379.00  3.1609E-003  
  379.50  3.1897E-003  
  380.00  3.3971E-003  
  380.50  3.5998E-003  
  381.00  3.9620E-003  
  381.50  3.9939E-003  
  382.00  3.9417E-003  
  382.50  4.0858E-003  
  383.00  4.1223E-003  
  383.50  4.2197E-003  
  384.00  4.2366E-003  
  384.50  4.2413E-003  
  385.00  4.4593E-003  
  385.50  4.6048E-003  
  386.00  4.6585E-003  
  386.50  4.6724E-003  
  387.00  4.6662E-003  
  387.50  4.8164E-003  
  388.00  4.9346E-003  
  388.50  4.7542E-003  
  389.00  4.8345E-003  
  389.50  5.1358E-003  
  390.00  5.5873E-003  
  390.50  6.0964E-003  
  391.00  6.1222E-003  
  391.50  5.8407E-003  
  392.00  5.6154E-003  
  392.50  5.6543E-003  
  393.00  5.7886E-003  
  393.50  5.8929E-003  
  394.00  6.0118E-003  
  394.50  6.0906E-003  
  395.00  6.2785E-003  
  395.50  6.6451E-003  
  396.00  6.8045E-003  
  396.50  7.1454E-003  
  397.00  7.2984E-003  
  397.50  7.2869E-003  
  398.00  7.2892E-003  
  398.50  7.4986E-003  
  399.00  7.8028E-003  
  399.50  7.9132E-003  
  400.00  7.8012E-003  
  400.50  7.4427E-003  
  401.00  7.2395E-003  
  401.50  7.3035E-003  
  402.00  7.3386E-003  
  402.50  7.5619E-003  
  403.00  7.7669E-003  
  403.50  7.9916E-003  
  404.00  8.2654E-003  
  404.50  8.3640E-003  
  405.00  8.6748E-003  
  405.50  8.8552E-003  
  406.00  8.7770E-003  
  406.50  8.6363E-003  
  407.00  8.5046E-003  
  407.50  8.5961E-003  
  408.00  8.8486E-003  
  408.50  9.0972E-003  
  409.00  9.3313E-003  
  409.50  9.2316E-003  
  410.00  9.2073E-003  
  410.50  9.3552E-003  
  411.00  9.7859E-003  
  411.50  1.0290E-002  
  412.00  1.0421E-002  
  412.50  1.0400E-002  
  413.00  1.0375E-002  
  413.50  1.0478E-002  
  414.00  1.0674E-002  
  414.50  1.0818E-002  
  415.00  1.1149E-002  
  415.50  1.1482E-002  
  416.00  1.1564E-002  
  416.50  1.1649E-002  
  417.00  1.1731E-002  
  417.50  1.1893E-002  
  418.00  1.2012E-002  
  418.50  1.1919E-002  
  419.00  1.1984E-002  
  419.50  1.2364E-002  
  420.00  1.2614E-002  
  420.50  1.2854E-002  
  421.00  1.3003E-002  
  421.50  1.2856E-002  
  422.00  1.2638E-002  
  422.50  1.2382E-002  
  423.00  1.2327E-002  
  423.50  1.2831E-002  
  424.00  1.3301E-002  
  424.50  1.3820E-002  
  425.00  1.3987E-002  
  425.50  1.4094E-002  
  426.00  1.4197E-002  
  426.50  1.4225E-002  
  427.00  1.4001E-002  
  427.50  1.4010E-002  
  428.00  1.4114E-002  
  428.50  1.4662E-002  
  429.00  1.5152E-002  
  429.50  1.5430E-002  
  430.00  1.5561E-002  
  430.50  1.5541E-002  
  431.00  1.5871E-002  
  431.50  1.6100E-002  
  432.00  1.6283E-002  
  432.50  1.6507E-002  
  433.00  1.6634E-002  
  433.50  1.6795E-002  
  434.00  1.7062E-002  
  434.50  1.7158E-002  
  435.00  1.7290E-002  
  435.50  1.7713E-002  
  436.00  1.7936E-002  
  436.50  1.8112E-002  
  437.00  1.7997E-002  
  437.50  1.7621E-002  
  438.00  1.7659E-002  
  438.50  1.7956E-002  
  439.00  1.8548E-002  
  439.50  1.9177E-002  
  440.00  1.9612E-002  
  440.50  1.9560E-002  
  441.00  1.9627E-002  
  441.50  1.9595E-002  
  442.00  1.9990E-002  
  442.50  2.0427E-002  
  443.00  2.0712E-002  
  443.50  2.0912E-002  
  444.00  2.0806E-002  
  444.50  2.0712E-002  
  445.00  2.0472E-002  
  445.50  2.0516E-002  
  446.00  2.0656E-002  
  446.50  2.1061E-002  
  447.00  2.1571E-002  
  447.50  2.1912E-002  
  448.00  2.2450E-002  
  448.50  2.2552E-002  
  449.00  2.2693E-002  
  449.50  2.2761E-002  
  450.00  2.2885E-002  
  450.50  2.3261E-002  
  451.00  2.3510E-002  
  451.50  2.3858E-002  
  452.00  2.4015E-002  
  452.50  2.4378E-002  
  453.00  2.4560E-002  
  453.50  2.4668E-002  
  454.00  2.4680E-002  
  454.50  2.4725E-002  
  455.00  2.5102E-002  
  455.50  2.5475E-002  
  456.00  2.6115E-002  
  456.50  2.6545E-002  
  457.00  2.6700E-002  
  457.50  2.6793E-002  
  458.00  2.6771E-002  
  458.50  2.6982E-002  
  459.00  2.7268E-002  
  459.50  2.7707E-002  
  460.00  2.8052E-002  
  460.50  2.8105E-002  
  461.00  2.8071E-002  
  461.50  2.8352E-002  
  462.00  2.8598E-002  
  462.50  2.9184E-002  
  463.00  2.9685E-002  
  463.50  2.9898E-002  
  464.00  3.0308E-002  
  464.50  3.0428E-002  
  465.00  3.0758E-002  
  465.50  3.0891E-002  
  466.00  3.1080E-002  
  466.50  3.1237E-002  
  467.00  3.1625E-002  
  467.50  3.2350E-002  
  468.00  3.2923E-002  
  468.50  3.3259E-002  
  469.00  3.3417E-002  
  469.50  3.3591E-002  
  470.00  3.4158E-002  
  470.50  3.4786E-002  
  471.00  3.4985E-002  
  471.50  3.5060E-002  
  472.00  3.4986E-002  
  472.50  3.5303E-002  
  473.00  3.5548E-002  
  473.50  3.5966E-002  
  474.00  3.6172E-002  
  474.50  3.6322E-002  
  475.00  3.6559E-002  
  475.50  3.6734E-002  
  476.00  3.7119E-002  
  476.50  3.7591E-002  
  477.00  3.7997E-002  
  477.50  3.8145E-002  
  478.00  3.8214E-002  
  478.50  3.8130E-002  
  479.00  3.8441E-002  
  479.50  3.9016E-002  
  480.00  3.9705E-002  
  480.50  4.0354E-002  
  481.00  4.0581E-002  
  481.50  4.0815E-002  
  482.00  4.0830E-002  
  482.50  4.0976E-002  
  483.00  4.1147E-002  
  483.50  4.1252E-002  
  484.00  4.1627E-002  
  484.50  4.1517E-002  
  485.00  4.1475E-002  
  485.50  4.1519E-002  
  486.00  4.1782E-002  
  486.50  4.2427E-002  
  487.00  4.2778E-002  
  487.50  4.2791E-002  
  488.00  4.2930E-002  
  488.50  4.3003E-002  
  489.00  4.3262E-002  
  489.50  4.3392E-002  
  490.00  4.3501E-002  
  490.50  4.3545E-002  
  491.00  4.3628E-002  
  491.50  4.3887E-002  
  492.00  4.4109E-002  
  492.50  4.4251E-002  
  493.00  4.4269E-002  
  493.50  4.4393E-002  
  494.00  4.4756E-002  
  494.50  4.5143E-002  
  495.00  4.5335E-002  
  495.50  4.5546E-002  
  496.00  4.5740E-002  
  496.50  4.5989E-002  
  497.00  4.6227E-002  
  497.50  4.6403E-002  
  498.00  4.6719E-002  
  498.50  4.7055E-002  
  499.00  4.7434E-002  
  499.50  4.7552E-002  
  500.00  4.7503E-002  
  500.50  4.7708E-002  
  501.00  4.7964E-002  
  501.50  4.8566E-002  
  502.00  4.9054E-002  
  502.50  4.9497E-002  
  503.00  4.9955E-002  
  503.50  5.0145E-002  
  504.00  5.0214E-002  
  504.50  5.0378E-002  
  505.00  5.0692E-002  
  505.50  5.1226E-002  
  506.00  5.1602E-002  
  506.50  5.1883E-002  
  507.00  5.2287E-002  
  507.50  5.2645E-002  
  508.00  5.3079E-002  
  508.50  5.3392E-002  
  509.00  5.3619E-002  
  509.50  5.3797E-002  
  510.00  5.3992E-002  
  510.50  5.4225E-002  
  511.00  5.4674E-002  
  511.50  5.5088E-002  
  512.00  5.5425E-002  
  512.50  5.5578E-002  
  513.00  5.5897E-002  
  513.50  5.6273E-002  
  514.00  5.6691E-002  
  514.50  5.7152E-002  
  515.00  5.7518E-002  
  515.50  5.8020E-002  
  516.00  5.8286E-002  
  516.50  5.8445E-002  
  517.00  5.8640E-002  
  517.50  5.9049E-002  
  518.00  5.9858E-002  
  518.50  6.0555E-002  
  519.00  6.1222E-002  
  519.50  6.1635E-002  
  520.00  6.1878E-002  
  520.50  6.2185E-002  
  521.00  6.2595E-002  
  521.50  6.3041E-002  
  522.00  6.3499E-002  
  522.50  6.3694E-002  
  523.00  6.4070E-002  
  523.50  6.4529E-002  
  524.00  6.5020E-002  
  524.50  6.5360E-002  
  525.00  6.5752E-002  
  525.50  6.6302E-002  
  526.00  6.7022E-002  
  526.50  6.7566E-002  
  527.00  6.8211E-002  
  527.50  6.8799E-002  
  528.00  6.9484E-002  
  528.50  6.9809E-002  
  529.00  6.9858E-002  
  529.50  7.0029E-002  
  530.00  7.0471E-002  
  530.50  7.1214E-002  
  531.00  7.1861E-002  
  531.50  7.2615E-002  
  532.00  7.3257E-002  
  532.50  7.3899E-002  
  533.00  7.4273E-002  
  533.50  7.4672E-002  
  534.00  7.5209E-002  
  534.50  7.5925E-002  
  535.00  7.6545E-002  
  535.50  7.7024E-002  
  536.00  7.7477E-002  
  536.50  7.7927E-002  
  537.00  7.8263E-002  
  537.50  7.8581E-002  
  538.00  7.8887E-002  
  538.50  7.9571E-002  
  539.00  8.0275E-002  
  539.50  8.0895E-002  
  540.00  8.1432E-002  
  540.50  8.2112E-002  
  541.00  8.2926E-002  
  541.50  8.3776E-002  
  542.00  8.4332E-002  
  542.50  8.4906E-002  
  543.00  8.5403E-002  
  543.50  8.5850E-002  
  544.00  8.6415E-002  
  544.50  8.6971E-002  
  545.00  8.7595E-002  
  545.50  8.7880E-002  
  546.00  8.8219E-002  
  546.50  8.8714E-002  
  547.00  8.9665E-002  
  547.50  9.0384E-002  
  548.00  9.1190E-002  
  548.50  9.1822E-002  
  549.00  9.2684E-002  
  549.50  9.3551E-002  
  550.00  9.3867E-002  
  550.50  9.4090E-002  
  551.00  9.4193E-002  
  551.50  9.4683E-002  
  552.00  9.5617E-002  
  552.50  9.6353E-002  
  553.00  9.6954E-002  
  553.50  9.7453E-002  
  554.00  9.8025E-002  
  554.50  9.8686E-002  
  555.00  9.9327E-002  
  555.50  9.9936E-002  
  556.00  1.0085E-001  
  556.50  1.0134E-001  
  557.00  1.0183E-001  
  557.50  1.0223E-001  
  558.00  1.0267E-001  
  558.50  1.0329E-001  
  559.00  1.0409E-001  
  559.50  1.0489E-001  
  560.00  1.0580E-001  
  560.50  1.0628E-001  
  561.00  1.0696E-001  
  561.50  1.0769E-001  
  562.00  1.0828E-001  
  562.50  1.0907E-001  
  563.00  1.0963E-001  
  563.50  1.1033E-001  
  564.00  1.1092E-001  
  564.50  1.1143E-001  
  565.00  1.1194E-001  
  565.50  1.1250E-001  
  566.00  1.1300E-001  
  566.50  1.1362E-001  
  567.00  1.1430E-001  
  567.50  1.1510E-001  
  568.00  1.1589E-001  
  568.50  1.1657E-001  
  569.00  1.1700E-001  
  569.50  1.1734E-001  
  570.00  1.1755E-001  
  570.50  1.1787E-001  
  571.00  1.1837E-001  
  571.50  1.1877E-001  
  572.00  1.1902E-001  
  572.50  1.1939E-001  
  573.00  1.2003E-001  
  573.50  1.2101E-001  
  574.00  1.2214E-001  
  574.50  1.2312E-001  
  575.00  1.2387E-001  
  575.50  1.2483E-001  
  576.00  1.2603E-001  
  576.50  1.2742E-001  
  577.00  1.2808E-001  
  577.50  1.2788E-001  
  578.00  1.2765E-001  
  578.50  1.2786E-001  
  579.00  1.2835E-001  
  579.50  1.2877E-001  
  580.00  1.2910E-001  
  580.50  1.2957E-001  
  581.00  1.3030E-001  
  581.50  1.3107E-001  
  582.00  1.3196E-001  
  582.50  1.3275E-001  
  583.00  1.3322E-001  
  583.50  1.3338E-001  
  584.00  1.3392E-001  
  584.50  1.3490E-001  
  585.00  1.3595E-001  
  585.50  1.3651E-001  
  586.00  1.3710E-001  
  586.50  1.3750E-001  
  587.00  1.3802E-001  
  587.50  1.3851E-001  
  588.00  1.3879E-001  
  588.50  1.3951E-001  
  589.00  1.3992E-001  
  589.50  1.4071E-001  
  590.00  1.4131E-001  
  590.50  1.4193E-001  
  591.00  1.4281E-001  
  591.50  1.4379E-001  
  592.00  1.4459E-001  
  592.50  1.4506E-001  
  593.00  1.4573E-001  
  593.50  1.4624E-001  
  594.00  1.4682E-001  
  594.50  1.4703E-001  
  595.00  1.4752E-001  
  595.50  1.4832E-001  
  596.00  1.4897E-001  
  596.50  1.4946E-001  
  597.00  1.4955E-001  
  597.50  1.4977E-001  
  598.00  1.5031E-001  
  598.50  1.5094E-001  
  599.00  1.5167E-001  
  599.50  1.5220E-001  
  600.00  1.5280E-001  
  600.50  1.5348E-001  
  601.00  1.5395E-001  
  601.50  1.5417E-001  
  602.00  1.5461E-001  
  602.50  1.5520E-001  
  603.00  1.5598E-001  
  603.50  1.5607E-001  
  604.00  1.5632E-001  
  604.50  1.5651E-001  
  605.00  1.5727E-001  
  605.50  1.5857E-001  
  606.00  1.5957E-001  
  606.50  1.6033E-001  
  607.00  1.6054E-001  
  607.50  1.6108E-001  
  608.00  1.6179E-001  
  608.50  1.6210E-001  
  609.00  1.6211E-001  
  609.50  1.6228E-001  
  610.00  1.6280E-001  
  610.50  1.6324E-001  
  611.00  1.6379E-001  
  611.50  1.6437E-001  
  612.00  1.6541E-001  
  612.50  1.6634E-001  
  613.00  1.6698E-001  
  613.50  1.6737E-001  
  614.00  1.6765E-001  
  614.50  1.6805E-001  
  615.00  1.6862E-001  
  615.50  1.6974E-001  
  616.00  1.7045E-001  
  616.50  1.7092E-001  
  617.00  1.7068E-001  
  617.50  1.7069E-001  
  618.00  1.7099E-001  
  618.50  1.7158E-001  
  619.00  1.7247E-001  
  619.50  1.7313E-001  
  620.00  1.7356E-001  
  620.50  1.7365E-001  
  621.00  1.7355E-001  
  621.50  1.7307E-001  
  622.00  1.7323E-001  
  622.50  1.7372E-001  
  623.00  1.7457E-001  
  623.50  1.7517E-001  
  624.00  1.7555E-001  
  624.50  1.7603E-001  
  625.00  1.7675E-001  
  625.50  1.7697E-001  
  626.00  1.7717E-001  
  626.50  1.7750E-001  
  627.00  1.7833E-001  
  627.50  1.7947E-001  
  628.00  1.8002E-001  
  628.50  1.8058E-001  
  629.00  1.8090E-001  
  629.50  1.8132E-001  
  630.00  1.8161E-001  
  630.50  1.8202E-001  
  631.00  1.8230E-001  
  631.50  1.8309E-001  
  632.00  1.8374E-001  
  632.50  1.8424E-001  
  633.00  1.8451E-001  
  633.50  1.8457E-001  
  634.00  1.8518E-001  
  634.50  1.8597E-001  
  635.00  1.8688E-001  
  635.50  1.8752E-001  
  636.00  1.8735E-001  
  636.50  1.8743E-001  
  637.00  1.8759E-001  
  637.50  1.8824E-001  
  638.00  1.8834E-001  
  638.50  1.8845E-001  
  639.00  1.8882E-001  
  639.50  1.8992E-001  
  640.00  1.9069E-001  
  640.50  1.9120E-001  
  641.00  1.9137E-001  
  641.50  1.9184E-001  
  642.00  1.9237E-001  
  642.50  1.9319E-001  
  643.00  1.9368E-001  
  643.50  1.9414E-001  
  644.00  1.9413E-001  
  644.50  1.9408E-001  
  645.00  1.9475E-001  
  645.50  1.9514E-001  
  646.00  1.9586E-001  
  646.50  1.9631E-001  
  647.00  1.9690E-001  
  647.50  1.9721E-001  
  648.00  1.9746E-001  
  648.50  1.9823E-001  
  649.00  1.9891E-001  
  649.50  1.9943E-001  
  650.00  1.9959E-001  
  650.50  2.0016E-001  
  651.00  2.0025E-001  
  651.50  2.0026E-001  
  652.00  2.0045E-001  
  652.50  2.0074E-001  
  653.00  2.0118E-001  
  653.50  2.0131E-001  
  654.00  2.0211E-001  
  654.50  2.0300E-001  
  655.00  2.0345E-001  
  655.50  2.0410E-001  
  656.00  2.0492E-001  
  656.50  2.0571E-001  
  657.00  2.0572E-001  
  657.50  2.0521E-001  
  658.00  2.0535E-001  
  658.50  2.0557E-001  
  659.00  2.0604E-001  
  659.50  2.0634E-001  
  660.00  2.0650E-001  
  660.50  2.0669E-001  
  661.00  2.0741E-001  
  661.50  2.0826E-001  
  662.00  2.0912E-001  
  662.50  2.0995E-001  
  663.00  2.1035E-001  
  663.50  2.1029E-001  
  664.00  2.0930E-001  
  664.50  2.0872E-001  
  665.00  2.0857E-001  
  665.50  2.0915E-001  
  666.00  2.0912E-001  
  666.50  2.0947E-001  
  667.00  2.1045E-001  
  667.50  2.1202E-001  
  668.00  2.1303E-001  
  668.50  2.1296E-001  
  669.00  2.1283E-001  
  669.50  2.1264E-001  
  670.00  2.1276E-001  
  670.50  2.1283E-001  
  671.00  2.1301E-001  
  671.50  2.1329E-001  
  672.00  2.1341E-001  
  672.50  2.1372E-001  
  673.00  2.1384E-001  
  673.50  2.1393E-001  
  674.00  2.1364E-001  
  674.50  2.1404E-001  
  675.00  2.1480E-001  
  675.50  2.1567E-001  
  676.00  2.1604E-001  
  676.50  2.1546E-001  
  677.00  2.1529E-001  
  677.50  2.1527E-001  
  678.00  2.1569E-001  
  678.50  2.1589E-001  
  679.00  2.1624E-001  
  679.50  2.1709E-001  
  680.00  2.1790E-001  
  680.50  2.1889E-001  
  681.00  2.1906E-001  
  681.50  2.1873E-001  
  682.00  2.1813E-001  
  682.50  2.1851E-001  
  683.00  2.1897E-001  
  683.50  2.1874E-001  
  684.00  2.1838E-001  
  684.50  2.1845E-001  
  685.00  2.1866E-001  
  685.50  2.1891E-001  
  686.00  2.1907E-001  
  686.50  2.1949E-001  
  687.00  2.2030E-001  
  687.50  2.2099E-001  
  688.00  2.2145E-001  
  688.50  2.2137E-001  
  689.00  2.2064E-001  
  689.50  2.2118E-001  
  690.00  2.2158E-001  
  690.50  2.2278E-001  
  691.00  2.2240E-001  
  691.50  2.2206E-001  
  692.00  2.2172E-001  
  692.50  2.2211E-001  
  693.00  2.2235E-001  
  693.50  2.2285E-001  
  694.00  2.2358E-001  
  694.50  2.2421E-001  
  695.00  2.2428E-001  
  695.50  2.2368E-001  
  696.00  2.2295E-001  
  696.50  2.2306E-001  
  697.00  2.2346E-001  
  697.50  2.2471E-001  
  698.00  2.2549E-001  
  698.50  2.2648E-001  
  699.00  2.2670E-001  
  699.50  2.2605E-001  
  700.00  2.2585E-001  
  700.50  2.2652E-001  
  701.00  2.2772E-001  
  701.50  2.2762E-001  
  702.00  2.2731E-001  
  702.50  2.2740E-001  
  703.00  2.2761E-001  
  703.50  2.2747E-001  
  704.00  2.2789E-001  
  704.50  2.2913E-001  
  705.00  2.2994E-001  
  705.50  2.2983E-001  
  706.00  2.2963E-001  
  706.50  2.2971E-001  
  707.00  2.3008E-001  
  707.50  2.3042E-001  
  708.00  2.3010E-001  
  708.50  2.3053E-001  
  709.00  2.3128E-001  
  709.50  2.3200E-001  
  710.00  2.3156E-001  
  710.50  2.3221E-001  
  711.00  2.3261E-001  
  711.50  2.3262E-001  
  712.00  2.3256E-001  
  712.50  2.3338E-001  
  713.00  2.3373E-001  
  713.50  2.3342E-001  
  714.00  2.3310E-001  
  714.50  2.3311E-001  
  715.00  2.3338E-001  
  715.50  2.3400E-001  
  716.00  2.3463E-001  
  716.50  2.3483E-001  
  717.00  2.3451E-001  
  717.50  2.3481E-001  
  718.00  2.3471E-001  
  718.50  2.3439E-001  
  719.00  2.3463E-001  
  719.50  2.3479E-001  
  720.00  2.3508E-001  
  720.50  2.3448E-001  
  721.00  2.3407E-001  
  721.50  2.3440E-001  
  722.00  2.3515E-001  
  722.50  2.3606E-001  
  723.00  2.3592E-001  
  723.50  2.3581E-001  
  724.00  2.3576E-001  
  724.50  2.3666E-001  
  725.00  2.3680E-001  
  725.50  2.3680E-001  
  726.00  2.3580E-001  
  726.50  2.3598E-001  
  727.00  2.3683E-001  
  727.50  2.3787E-001  
  728.00  2.3824E-001  
  728.50  2.3837E-001  
  729.00  2.3860E-001  
  729.50  2.3831E-001  
  730.00  2.3870E-001  
  730.50  2.3960E-001  
  731.00  2.4047E-001  
  731.50  2.3998E-001  
  732.00  2.3910E-001  
  732.50  2.3877E-001  
  733.00  2.3907E-001  
  733.50  2.3989E-001  
  734.00  2.4115E-001  
  734.50  2.4280E-001  
  735.00  2.4344E-001  
  735.50  2.4307E-001  
  736.00  2.4296E-001  
  736.50  2.4320E-001  
  737.00  2.4341E-001  
  737.50  2.4327E-001  
  738.00  2.4307E-001  
  738.50  2.4265E-001  
  739.00  2.4261E-001  
  739.50  2.4318E-001  
  740.00  2.4353E-001  
  740.50  2.4290E-001  
  741.00  2.4296E-001  
  741.50  2.4391E-001  
  742.00  2.4474E-001  
  742.50  2.4379E-001  
  743.00  2.4324E-001  
  743.50  2.4328E-001  
  744.00  2.4379E-001  
  744.50  2.4385E-001  
  745.00  2.4464E-001  
  745.50  2.4581E-001  
  746.00  2.4659E-001  
  746.50  2.4715E-001  
  747.00  2.4763E-001  
  747.50  2.4823E-001  
  748.00  2.4789E-001  
  748.50  2.4797E-001  
  749.00  2.4713E-001  
  749.50  2.4665E-001  
  750.00  2.4588E-001  
  750.50  2.4605E-001  
  751.00  2.4633E-001  
  751.50  2.4669E-001  
  752.00  2.4710E-001  
  752.50  2.4824E-001  
  753.00  2.4911E-001  
  753.50  2.4957E-001  
  754.00  2.4864E-001  
  754.50  2.4887E-001  
  755.00  2.4967E-001  
  755.50  2.5013E-001  
  756.00  2.5033E-001  
  756.50  2.4994E-001  
  757.00  2.5002E-001  
  757.50  2.5013E-001  
  758.00  2.5021E-001  
  758.50  2.5045E-001  
  759.00  2.5138E-001  
  759.50  2.5198E-001  
  760.00  2.5160E-001  
  760.50  2.5086E-001  
  761.00  2.5130E-001  
  761.50  2.5233E-001  
  762.00  2.5362E-001  
  762.50  2.5340E-001  
  763.00  2.5260E-001  
  763.50  2.5173E-001  
  764.00  2.5220E-001  
  764.50  2.5249E-001  
  765.00  2.5318E-001  
  765.50  2.5317E-001  
  766.00  2.5363E-001  
  766.50  2.5425E-001  
  767.00  2.5630E-001  
  767.50  2.5643E-001  
  768.00  2.5647E-001  
  768.50  2.5625E-001  
  769.00  2.5649E-001  
  769.50  2.5617E-001  
  770.00  2.5644E-001  
  770.50  2.5561E-001  
  771.00  2.5399E-001  
  771.50  2.5412E-001  
  772.00  2.5531E-001  
  772.50  2.5601E-001  
  773.00  2.5495E-001  
  773.50  2.5541E-001  
  774.00  2.5792E-001  
  774.50  2.6070E-001  
  775.00  2.6112E-001  
  775.50  2.6032E-001  
  776.00  2.5949E-001  
  776.50  2.5928E-001  
  777.00  2.5900E-001  
  777.50  2.5929E-001  
  778.00  2.6015E-001  
  778.50  2.5947E-001  
  779.00  2.5940E-001  
  779.50  2.5967E-001  
  780.00  2.6079E-001  
  780.50  2.6086E-001  
  781.00  2.6049E-001  
  781.50  2.6082E-001  
  782.00  2.6089E-001  
  782.50  2.6152E-001  
  783.00  2.6250E-001  
  783.50  2.6319E-001  
  784.00  2.6423E-001  
  784.50  2.6505E-001  
  785.00  2.6438E-001  
  785.50  2.6311E-001  
  786.00  2.6385E-001  
  786.50  2.6649E-001  
  787.00  2.6777E-001  
  787.50  2.6557E-001  
  788.00  2.6383E-001  
  788.50  2.6209E-001  
  789.00  2.6208E-001  
  789.50  2.6239E-001  
  790.00  2.6261E-001  
  790.50  2.6311E-001  
  791.00  2.6466E-001  
  791.50  2.6641E-001  
  792.00  2.6778E-001  
  792.50  2.6798E-001  
  793.00  2.6892E-001  
  793.50  2.6675E-001  
  794.00  2.6565E-001  
  794.50  2.6574E-001  
  795.00  2.6716E-001  
  795.50  2.6784E-001  
  796.00  2.6803E-001  
  796.50  2.6859E-001  
  797.00  2.6909E-001  
  797.50  2.6844E-001  
  798.00  2.6706E-001  
  798.50  2.6722E-001  
  799.00  2.6861E-001  
  799.50  2.7075E-001  
  800.00  2.7148E-001  
  800.50  2.7221E-001  
  801.00  2.7232E-001  
  801.50  2.7208E-001  
  802.00  2.6999E-001  
  802.50  2.6995E-001  
  803.00  2.7000E-001  
  803.50  2.7049E-001  
  804.00  2.6981E-001  
  804.50  2.7229E-001  
  805.00  2.7437E-001  
  805.50  2.7631E-001  
  806.00  2.7547E-001  
  806.50  2.7324E-001  
  807.00  2.7132E-001  
  807.50  2.7268E-001  
  808.00  2.7412E-001  
  808.50  2.7596E-001  
  809.00  2.7724E-001  
  809.50  2.7755E-001  
  810.00  2.7613E-001  
  810.50  2.7364E-001  
  811.00  2.7441E-001  
  811.50  2.7571E-001  
  812.00  2.7750E-001  
  812.50  2.7965E-001  
  813.00  2.8021E-001  
  813.50  2.7835E-001  
  814.00  2.7733E-001  
  814.50  2.7857E-001  
  815.00  2.7887E-001  
  815.50  2.7915E-001  
  816.00  2.7926E-001  
  816.50  2.7919E-001  
  817.00  2.7859E-001  
  817.50  2.7882E-001  
  818.00  2.8132E-001  
  818.50  2.8064E-001  
  819.00  2.7942E-001  
  819.50  2.7872E-001  
  820.00  2.8017E-001  
  820.50  2.8050E-001  
  821.00  2.8039E-001  
  821.50  2.8062E-001  
  822.00  2.8107E-001  
  822.50  2.8115E-001  
  823.00  2.8116E-001  
  823.50  2.8141E-001  
  824.00  2.8090E-001  
  824.50  2.7937E-001  
  825.00  2.7865E-001  
  825.50  2.8194E-001  
  826.00  2.8377E-001  
  826.50  2.8349E-001  
  827.00  2.8092E-001  
  827.50  2.8049E-001  
  828.00  2.8183E-001  
  828.50  2.8376E-001  
  829.00  2.8387E-001  
  829.50  2.8477E-001  
  830.00  2.8436E-001  
  830.50  2.8286E-001  
  831.00  2.8212E-001  
  831.50  2.8410E-001  
  832.00  2.8508E-001  
  832.50  2.8324E-001  
  833.00  2.8203E-001  
  833.50  2.8203E-001  
  834.00  2.8112E-001  
  834.50  2.8297E-001  
  835.00  2.8413E-001  
  835.50  2.8492E-001  
  836.00  2.8785E-001  
  836.50  2.9103E-001  
  837.00  2.9401E-001  
  837.50  2.9382E-001  
  838.00  2.9088E-001  
  838.50  2.8930E-001  
  839.00  2.9010E-001  
  839.50  2.9091E-001  
  840.00  2.9031E-001  
  840.50  2.8933E-001  
  841.00  2.9070E-001  
  841.50  2.9100E-001  
  842.00  2.9062E-001  
  842.50  2.9077E-001  
  843.00  2.9276E-001  
  843.50  2.9238E-001  
  844.00  2.9027E-001  
  844.50  2.9021E-001  
  845.00  2.9480E-001  
  845.50  2.9740E-001  
  846.00  2.9624E-001  
  846.50  2.9074E-001  
  847.00  2.8913E-001  
  847.50  2.9081E-001  
  848.00  2.9097E-001  
  848.50  2.9084E-001  
  849.00  2.9118E-001  
  849.50  2.9014E-001  
  850.00  2.9194E-001  
  850.50  2.9364E-001  
  851.00  2.9527E-001  
  851.50  2.9368E-001  
  852.00  2.9167E-001  
  852.50  2.8966E-001  
  853.00  2.9425E-001  
  853.50  2.9711E-001  
  854.00  2.9607E-001  
  854.50  2.9285E-001  
  855.00  2.9150E-001  
  855.50  2.9041E-001  
  856.00  2.9100E-001  
  856.50  2.9239E-001  
  857.00  2.9306E-001  
  857.50  2.9368E-001  
  858.00  2.9565E-001  
  858.50  2.9634E-001  
  859.00  2.9622E-001  
  859.50  2.9572E-001  
  860.00  2.9464E-001  
  860.50  2.9421E-001  
  861.00  2.9505E-001  
  861.50  2.9468E-001  
  862.00  2.9548E-001  
  862.50  2.9804E-001  
  863.00  2.9829E-001  
  863.50  2.9680E-001  
  864.00  2.9523E-001  
  864.50  2.9554E-001  
  865.00  2.9627E-001  
  865.50  2.9675E-001  
  866.00  2.9888E-001  
  866.50  3.0175E-001  
  867.00  3.0315E-001  
  867.50  3.0216E-001  
  868.00  2.9978E-001  
  868.50  2.9735E-001  
  869.00  2.9915E-001  
  869.50  3.0152E-001  
  870.00  3.0101E-001  
  870.50  2.9889E-001  
  871.00  2.9781E-001  
  871.50  3.0202E-001  
  872.00  3.0236E-001  
  872.50  2.9733E-001  
  873.00  2.9868E-001  
  873.50  3.0229E-001  
  874.00  3.0072E-001  
  874.50  2.9845E-001  
  875.00  2.9529E-001  
  875.50  2.9270E-001  
  876.00  2.9339E-001  
  876.50  2.9954E-001  
  877.00  3.0142E-001  
  877.50  2.9704E-001  
  878.00  2.9232E-001  
  878.50  2.9601E-001  
  879.00  3.0366E-001  
  879.50  3.0798E-001  
  880.00  3.0556E-001  
  880.50  3.0221E-001  
  881.00  3.0144E-001  
  881.50  2.9849E-001  
  882.00  2.9469E-001  
  882.50  2.9524E-001  
  883.00  3.0062E-001  
  883.50  3.0527E-001  
  884.00  3.0352E-001  
  884.50  2.9983E-001  
  885.00  3.0385E-001  
  885.50  3.0529E-001  
  886.00  3.0526E-001  
  886.50  3.0360E-001  
  887.00  2.9984E-001  
  887.50  2.9701E-001  
  888.00  3.0054E-001  
  888.50  3.0590E-001  
  889.00  3.0670E-001  
  889.50  3.0363E-001  
  890.00  3.0025E-001  
  890.50  3.0045E-001  
  891.00  3.0217E-001  
  891.50  3.0105E-001  
  892.00  2.9787E-001  
  892.50  3.0264E-001  
  893.00  3.0486E-001  
  893.50  3.0102E-001  
  894.00  2.9587E-001  
  894.50  2.9668E-001  
  895.00  3.0323E-001  
  895.50  3.0922E-001  
  896.00  3.0961E-001  
  896.50  3.0987E-001  
  897.00  3.0877E-001  
  897.50  3.0845E-001  
  898.00  3.0741E-001  
  898.50  3.0413E-001  
  899.00  3.0143E-001  
  899.50  5.9943E-003  
