
# From lspdd.org
# 
# Name: INC Philips domestic-use -
# Indice spectral Valeur 
# MSI 0.30 
# SLI 0.51 
# IPI 0.97 
# Pourcentage de bleu 13.1 
# Caractéristique Valeur 
# CCT calculée (K) 2594 
# CCT du fabricant (K) 2750 
# Tension (V) 120 
# Puissance (W) 60.0 
# Efficacité lumineuse (Lum/W) ND 
#
# Image: '/app/system/img_1s/2761/medium_image1.jpg?1622001361'
# 

  273.00  0.0000E+000  
  273.50  0.0000E+000  
  274.00  0.0000E+000  
  274.50  0.0000E+000  
  275.00  0.0000E+000  
  275.50  0.0000E+000  
  276.00  0.0000E+000  
  276.50  0.0000E+000  
  277.00  0.0000E+000  
  277.50  0.0000E+000  
  278.00  0.0000E+000  
  278.50  0.0000E+000  
  279.00  0.0000E+000  
  279.50  0.0000E+000  
  280.00  0.0000E+000  
  280.50  0.0000E+000  
  281.00  0.0000E+000  
  281.50  0.0000E+000  
  282.00  0.0000E+000  
  282.50  0.0000E+000  
  283.00  0.0000E+000  
  283.50  0.0000E+000  
  284.00  0.0000E+000  
  284.50  0.0000E+000  
  285.00  0.0000E+000  
  285.50  0.0000E+000  
  286.00  0.0000E+000  
  286.50  0.0000E+000  
  287.00  0.0000E+000  
  287.50  0.0000E+000  
  288.00  0.0000E+000  
  288.50  0.0000E+000  
  289.00  0.0000E+000  
  289.50  0.0000E+000  
  290.00  0.0000E+000  
  290.50  0.0000E+000  
  291.00  0.0000E+000  
  291.50  0.0000E+000  
  292.00  0.0000E+000  
  292.50  0.0000E+000  
  293.00  0.0000E+000  
  293.50  0.0000E+000  
  294.00  0.0000E+000  
  294.50  0.0000E+000  
  295.00  0.0000E+000  
  295.50  0.0000E+000  
  296.00  0.0000E+000  
  296.50  0.0000E+000  
  297.00  0.0000E+000  
  297.50  0.0000E+000  
  298.00  0.0000E+000  
  298.50  0.0000E+000  
  299.00  0.0000E+000  
  299.50  0.0000E+000  
  300.00  2.1334E-004  
  300.50  5.8308E-004  
  301.00  6.0559E-004  
  301.50  5.9604E-004  
  302.00  6.8641E-004  
  302.50  7.7481E-004  
  303.00  8.1093E-004  
  303.50  8.8409E-004  
  304.00  9.2552E-004  
  304.50  1.0053E-003  
  305.00  1.1780E-003  
  305.50  1.4222E-003  
  306.00  1.7400E-003  
  306.50  1.7276E-003  
  307.00  1.6034E-003  
  307.50  1.4367E-003  
  308.00  1.1156E-003  
  308.50  9.9457E-004  
  309.00  1.1447E-003  
  309.50  1.2960E-003  
  310.00  1.5752E-003  
  310.50  1.8326E-003  
  311.00  1.7226E-003  
  311.50  1.8947E-003  
  312.00  2.0722E-003  
  312.50  2.1263E-003  
  313.00  2.2557E-003  
  313.50  2.0544E-003  
  314.00  1.9752E-003  
  314.50  2.0872E-003  
  315.00  2.1086E-003  
  315.50  1.9226E-003  
  316.00  1.7647E-003  
  316.50  1.6350E-003  
  317.00  1.5233E-003  
  317.50  1.7078E-003  
  318.00  1.6196E-003  
  318.50  1.5608E-003  
  319.00  1.8017E-003  
  319.50  1.9339E-003  
  320.00  2.1693E-003  
  320.50  2.2806E-003  
  321.00  2.1871E-003  
  321.50  2.1541E-003  
  322.00  2.2638E-003  
  322.50  2.4989E-003  
  323.00  2.5576E-003  
  323.50  2.5429E-003  
  324.00  2.3563E-003  
  324.50  2.1824E-003  
  325.00  2.1113E-003  
  325.50  2.0859E-003  
  326.00  2.2436E-003  
  326.50  2.4505E-003  
  327.00  2.8061E-003  
  327.50  3.0806E-003  
  328.00  3.0997E-003  
  328.50  2.9794E-003  
  329.00  2.9171E-003  
  329.50  2.9709E-003  
  330.00  3.1772E-003  
  330.50  3.4183E-003  
  331.00  3.3267E-003  
  331.50  3.1918E-003  
  332.00  3.0022E-003  
  332.50  3.0461E-003  
  333.00  3.1970E-003  
  333.50  3.4395E-003  
  334.00  3.5226E-003  
  334.50  3.2823E-003  
  335.00  3.0314E-003  
  335.50  2.8048E-003  
  336.00  2.5820E-003  
  336.50  2.6769E-003  
  337.00  2.7387E-003  
  337.50  2.8270E-003  
  338.00  2.9293E-003  
  338.50  2.9776E-003  
  339.00  3.1645E-003  
  339.50  3.2269E-003  
  340.00  3.4104E-003  
  340.50  3.3263E-003  
  341.00  3.2382E-003  
  341.50  3.4246E-003  
  342.00  3.4101E-003  
  342.50  3.5300E-003  
  343.00  3.6375E-003  
  343.50  3.6271E-003  
  344.00  3.8161E-003  
  344.50  3.8331E-003  
  345.00  3.7809E-003  
  345.50  3.8532E-003  
  346.00  4.0132E-003  
  346.50  4.3382E-003  
  347.00  4.5368E-003  
  347.50  4.6522E-003  
  348.00  4.6377E-003  
  348.50  4.7973E-003  
  349.00  5.0157E-003  
  349.50  5.0686E-003  
  350.00  5.0297E-003  
  350.50  4.9218E-003  
  351.00  4.8968E-003  
  351.50  4.9857E-003  
  352.00  5.0802E-003  
  352.50  5.2102E-003  
  353.00  5.1843E-003  
  353.50  5.3570E-003  
  354.00  5.4911E-003  
  354.50  5.5004E-003  
  355.00  5.5982E-003  
  355.50  5.5934E-003  
  356.00  5.8650E-003  
  356.50  6.2049E-003  
  357.00  6.2753E-003  
  357.50  6.1685E-003  
  358.00  6.0106E-003  
  358.50  5.7624E-003  
  359.00  5.8095E-003  
  359.50  5.8170E-003  
  360.00  5.9082E-003  
  360.50  6.0222E-003  
  361.00  6.2217E-003  
  361.50  6.4214E-003  
  362.00  6.5474E-003  
  362.50  6.7665E-003  
  363.00  6.5788E-003  
  363.50  6.5164E-003  
  364.00  6.6171E-003  
  364.50  6.8608E-003  
  365.00  7.2491E-003  
  365.50  7.3494E-003  
  366.00  7.3725E-003  
  366.50  7.3155E-003  
  367.00  7.4050E-003  
  367.50  7.6428E-003  
  368.00  7.7604E-003  
  368.50  7.8384E-003  
  369.00  7.7773E-003  
  369.50  7.7422E-003  
  370.00  7.8466E-003  
  370.50  7.7459E-003  
  371.00  7.7220E-003  
  371.50  7.7533E-003  
  372.00  8.0470E-003  
  372.50  8.5733E-003  
  373.00  8.7890E-003  
  373.50  9.1405E-003  
  374.00  9.3097E-003  
  374.50  9.4170E-003  
  375.00  9.6208E-003  
  375.50  9.6012E-003  
  376.00  9.7123E-003  
  376.50  9.8729E-003  
  377.00  9.9328E-003  
  377.50  9.9506E-003  
  378.00  1.0013E-002  
  378.50  1.0300E-002  
  379.00  1.0642E-002  
  379.50  1.0974E-002  
  380.00  1.0878E-002  
  380.50  1.0735E-002  
  381.00  1.0717E-002  
  381.50  1.0852E-002  
  382.00  1.1194E-002  
  382.50  1.1330E-002  
  383.00  1.1283E-002  
  383.50  1.1649E-002  
  384.00  1.2009E-002  
  384.50  1.2413E-002  
  385.00  1.2724E-002  
  385.50  1.2741E-002  
  386.00  1.2767E-002  
  386.50  1.2948E-002  
  387.00  1.2992E-002  
  387.50  1.3235E-002  
  388.00  1.3432E-002  
  388.50  1.3539E-002  
  389.00  1.3695E-002  
  389.50  1.3804E-002  
  390.00  1.4109E-002  
  390.50  1.4534E-002  
  391.00  1.4697E-002  
  391.50  1.4912E-002  
  392.00  1.4988E-002  
  392.50  1.5270E-002  
  393.00  1.5634E-002  
  393.50  1.5830E-002  
  394.00  1.6093E-002  
  394.50  1.6231E-002  
  395.00  1.6568E-002  
  395.50  1.7041E-002  
  396.00  1.7450E-002  
  396.50  1.7874E-002  
  397.00  1.8233E-002  
  397.50  1.8482E-002  
  398.00  1.8990E-002  
  398.50  1.9380E-002  
  399.00  1.9858E-002  
  399.50  2.0255E-002  
  400.00  2.0672E-002  
  400.50  2.1164E-002  
  401.00  2.1563E-002  
  401.50  2.1879E-002  
  402.00  2.2178E-002  
  402.50  2.2506E-002  
  403.00  2.2687E-002  
  403.50  2.3058E-002  
  404.00  2.3344E-002  
  404.50  2.4090E-002  
  405.00  2.4822E-002  
  405.50  2.5432E-002  
  406.00  2.5896E-002  
  406.50  2.6206E-002  
  407.00  2.6480E-002  
  407.50  2.6718E-002  
  408.00  2.6848E-002  
  408.50  2.7192E-002  
  409.00  2.7824E-002  
  409.50  2.8310E-002  
  410.00  2.8918E-002  
  410.50  2.9404E-002  
  411.00  2.9734E-002  
  411.50  3.0156E-002  
  412.00  3.0276E-002  
  412.50  3.0487E-002  
  413.00  3.1065E-002  
  413.50  3.1624E-002  
  414.00  3.2111E-002  
  414.50  3.2594E-002  
  415.00  3.2983E-002  
  415.50  3.3374E-002  
  416.00  3.3766E-002  
  416.50  3.3937E-002  
  417.00  3.4454E-002  
  417.50  3.4888E-002  
  418.00  3.5318E-002  
  418.50  3.5700E-002  
  419.00  3.5936E-002  
  419.50  3.6115E-002  
  420.00  3.6419E-002  
  420.50  3.6711E-002  
  421.00  3.7151E-002  
  421.50  3.7654E-002  
  422.00  3.8011E-002  
  422.50  3.8289E-002  
  423.00  3.8795E-002  
  423.50  3.9256E-002  
  424.00  3.9744E-002  
  424.50  4.0213E-002  
  425.00  4.0445E-002  
  425.50  4.0983E-002  
  426.00  4.1409E-002  
  426.50  4.1820E-002  
  427.00  4.1821E-002  
  427.50  4.1881E-002  
  428.00  4.2262E-002  
  428.50  4.3222E-002  
  429.00  4.4296E-002  
  429.50  4.4987E-002  
  430.00  4.5334E-002  
  430.50  4.5370E-002  
  431.00  4.5472E-002  
  431.50  4.5547E-002  
  432.00  4.5974E-002  
  432.50  4.6481E-002  
  433.00  4.6827E-002  
  433.50  4.7366E-002  
  434.00  4.7939E-002  
  434.50  4.8634E-002  
  435.00  4.9175E-002  
  435.50  4.9724E-002  
  436.00  5.0355E-002  
  436.50  5.0974E-002  
  437.00  5.1313E-002  
  437.50  5.1320E-002  
  438.00  5.1117E-002  
  438.50  5.1566E-002  
  439.00  5.2154E-002  
  439.50  5.2887E-002  
  440.00  5.3689E-002  
  440.50  5.4311E-002  
  441.00  5.4880E-002  
  441.50  5.5248E-002  
  442.00  5.5894E-002  
  442.50  5.6540E-002  
  443.00  5.7420E-002  
  443.50  5.7923E-002  
  444.00  5.7967E-002  
  444.50  5.8019E-002  
  445.00  5.7942E-002  
  445.50  5.8300E-002  
  446.00  5.8638E-002  
  446.50  5.9371E-002  
  447.00  6.0023E-002  
  447.50  6.0702E-002  
  448.00  6.1048E-002  
  448.50  6.1510E-002  
  449.00  6.2200E-002  
  449.50  6.3198E-002  
  450.00  6.3719E-002  
  450.50  6.4261E-002  
  451.00  6.4707E-002  
  451.50  6.4920E-002  
  452.00  6.5514E-002  
  452.50  6.6055E-002  
  453.00  6.6816E-002  
  453.50  6.7291E-002  
  454.00  6.7705E-002  
  454.50  6.7983E-002  
  455.00  6.8481E-002  
  455.50  6.9240E-002  
  456.00  7.0176E-002  
  456.50  7.1018E-002  
  457.00  7.2134E-002  
  457.50  7.2895E-002  
  458.00  7.3522E-002  
  458.50  7.3834E-002  
  459.00  7.3800E-002  
  459.50  7.3823E-002  
  460.00  7.4505E-002  
  460.50  7.5283E-002  
  461.00  7.6558E-002  
  461.50  7.7756E-002  
  462.00  7.8560E-002  
  462.50  7.9339E-002  
  463.00  7.9968E-002  
  463.50  8.0217E-002  
  464.00  8.0716E-002  
  464.50  8.1413E-002  
  465.00  8.2139E-002  
  465.50  8.2549E-002  
  466.00  8.2564E-002  
  466.50  8.2579E-002  
  467.00  8.3460E-002  
  467.50  8.5188E-002  
  468.00  8.6747E-002  
  468.50  8.7703E-002  
  469.00  8.8316E-002  
  469.50  8.9211E-002  
  470.00  9.0372E-002  
  470.50  9.1774E-002  
  471.00  9.2344E-002  
  471.50  9.2694E-002  
  472.00  9.3047E-002  
  472.50  9.3386E-002  
  473.00  9.3992E-002  
  473.50  9.4669E-002  
  474.00  9.5662E-002  
  474.50  9.6666E-002  
  475.00  9.7248E-002  
  475.50  9.7593E-002  
  476.00  9.7848E-002  
  476.50  9.8769E-002  
  477.00  9.9987E-002  
  477.50  1.0107E-001  
  478.00  1.0184E-001  
  478.50  1.0210E-001  
  479.00  1.0270E-001  
  479.50  1.0335E-001  
  480.00  1.0457E-001  
  480.50  1.0529E-001  
  481.00  1.0516E-001  
  481.50  1.0526E-001  
  482.00  1.0531E-001  
  482.50  1.0575E-001  
  483.00  1.0628E-001  
  483.50  1.0656E-001  
  484.00  1.0741E-001  
  484.50  1.0799E-001  
  485.00  1.0834E-001  
  485.50  1.0816E-001  
  486.00  1.0810E-001  
  486.50  1.0874E-001  
  487.00  1.0939E-001  
  487.50  1.0983E-001  
  488.00  1.1002E-001  
  488.50  1.1041E-001  
  489.00  1.1095E-001  
  489.50  1.1159E-001  
  490.00  1.1191E-001  
  490.50  1.1221E-001  
  491.00  1.1250E-001  
  491.50  1.1269E-001  
  492.00  1.1314E-001  
  492.50  1.1365E-001  
  493.00  1.1404E-001  
  493.50  1.1431E-001  
  494.00  1.1428E-001  
  494.50  1.1462E-001  
  495.00  1.1532E-001  
  495.50  1.1628E-001  
  496.00  1.1723E-001  
  496.50  1.1758E-001  
  497.00  1.1800E-001  
  497.50  1.1834E-001  
  498.00  1.1884E-001  
  498.50  1.1959E-001  
  499.00  1.2011E-001  
  499.50  1.2055E-001  
  500.00  1.2105E-001  
  500.50  1.2165E-001  
  501.00  1.2240E-001  
  501.50  1.2323E-001  
  502.00  1.2380E-001  
  502.50  1.2442E-001  
  503.00  1.2518E-001  
  503.50  1.2577E-001  
  504.00  1.2633E-001  
  504.50  1.2700E-001  
  505.00  1.2786E-001  
  505.50  1.2867E-001  
  506.00  1.2936E-001  
  506.50  1.2983E-001  
  507.00  1.3066E-001  
  507.50  1.3148E-001  
  508.00  1.3223E-001  
  508.50  1.3279E-001  
  509.00  1.3346E-001  
  509.50  1.3409E-001  
  510.00  1.3491E-001  
  510.50  1.3544E-001  
  511.00  1.3626E-001  
  511.50  1.3694E-001  
  512.00  1.3783E-001  
  512.50  1.3860E-001  
  513.00  1.3946E-001  
  513.50  1.4014E-001  
  514.00  1.4086E-001  
  514.50  1.4166E-001  
  515.00  1.4217E-001  
  515.50  1.4322E-001  
  516.00  1.4419E-001  
  516.50  1.4527E-001  
  517.00  1.4626E-001  
  517.50  1.4696E-001  
  518.00  1.4775E-001  
  518.50  1.4859E-001  
  519.00  1.4955E-001  
  519.50  1.5047E-001  
  520.00  1.5144E-001  
  520.50  1.5238E-001  
  521.00  1.5344E-001  
  521.50  1.5434E-001  
  522.00  1.5492E-001  
  522.50  1.5531E-001  
  523.00  1.5620E-001  
  523.50  1.5743E-001  
  524.00  1.5863E-001  
  524.50  1.5979E-001  
  525.00  1.6104E-001  
  525.50  1.6233E-001  
  526.00  1.6336E-001  
  526.50  1.6408E-001  
  527.00  1.6476E-001  
  527.50  1.6580E-001  
  528.00  1.6693E-001  
  528.50  1.6820E-001  
  529.00  1.6939E-001  
  529.50  1.7052E-001  
  530.00  1.7141E-001  
  530.50  1.7233E-001  
  531.00  1.7313E-001  
  531.50  1.7423E-001  
  532.00  1.7549E-001  
  532.50  1.7688E-001  
  533.00  1.7804E-001  
  533.50  1.7908E-001  
  534.00  1.8007E-001  
  534.50  1.8135E-001  
  535.00  1.8264E-001  
  535.50  1.8383E-001  
  536.00  1.8484E-001  
  536.50  1.8603E-001  
  537.00  1.8729E-001  
  537.50  1.8854E-001  
  538.00  1.8942E-001  
  538.50  1.9021E-001  
  539.00  1.9115E-001  
  539.50  1.9221E-001  
  540.00  1.9338E-001  
  540.50  1.9477E-001  
  541.00  1.9631E-001  
  541.50  1.9789E-001  
  542.00  1.9899E-001  
  542.50  1.9998E-001  
  543.00  2.0109E-001  
  543.50  2.0233E-001  
  544.00  2.0357E-001  
  544.50  2.0481E-001  
  545.00  2.0593E-001  
  545.50  2.0734E-001  
  546.00  2.0875E-001  
  546.50  2.0991E-001  
  547.00  2.1104E-001  
  547.50  2.1206E-001  
  548.00  2.1329E-001  
  548.50  2.1480E-001  
  549.00  2.1628E-001  
  549.50  2.1784E-001  
  550.00  2.1879E-001  
  550.50  2.1993E-001  
  551.00  2.2122E-001  
  551.50  2.2257E-001  
  552.00  2.2400E-001  
  552.50  2.2492E-001  
  553.00  2.2600E-001  
  553.50  2.2719E-001  
  554.00  2.2853E-001  
  554.50  2.2998E-001  
  555.00  2.3133E-001  
  555.50  2.3233E-001  
  556.00  2.3333E-001  
  556.50  2.3435E-001  
  557.00  2.3565E-001  
  557.50  2.3736E-001  
  558.00  2.3897E-001  
  558.50  2.4068E-001  
  559.00  2.4219E-001  
  559.50  2.4373E-001  
  560.00  2.4555E-001  
  560.50  2.4645E-001  
  561.00  2.4768E-001  
  561.50  2.4878E-001  
  562.00  2.4984E-001  
  562.50  2.5126E-001  
  563.00  2.5219E-001  
  563.50  2.5356E-001  
  564.00  2.5456E-001  
  564.50  2.5582E-001  
  565.00  2.5751E-001  
  565.50  2.5947E-001  
  566.00  2.6074E-001  
  566.50  2.6140E-001  
  567.00  2.6220E-001  
  567.50  2.6359E-001  
  568.00  2.6478E-001  
  568.50  2.6566E-001  
  569.00  2.6664E-001  
  569.50  2.6784E-001  
  570.00  2.6905E-001  
  570.50  2.7010E-001  
  571.00  2.7086E-001  
  571.50  2.7179E-001  
  572.00  2.7300E-001  
  572.50  2.7465E-001  
  573.00  2.7642E-001  
  573.50  2.7780E-001  
  574.00  2.7898E-001  
  574.50  2.8019E-001  
  575.00  2.8111E-001  
  575.50  2.8243E-001  
  576.00  2.8370E-001  
  576.50  2.8527E-001  
  577.00  2.8685E-001  
  577.50  2.8792E-001  
  578.00  2.8881E-001  
  578.50  2.9016E-001  
  579.00  2.9086E-001  
  579.50  2.9216E-001  
  580.00  2.9333E-001  
  580.50  2.9465E-001  
  581.00  2.9584E-001  
  581.50  2.9675E-001  
  582.00  2.9777E-001  
  582.50  2.9878E-001  
  583.00  2.9977E-001  
  583.50  3.0011E-001  
  584.00  3.0107E-001  
  584.50  3.0212E-001  
  585.00  3.0365E-001  
  585.50  3.0519E-001  
  586.00  3.0651E-001  
  586.50  3.0782E-001  
  587.00  3.0905E-001  
  587.50  3.1066E-001  
  588.00  3.1152E-001  
  588.50  3.1234E-001  
  589.00  3.1271E-001  
  589.50  3.1363E-001  
  590.00  3.1494E-001  
  590.50  3.1670E-001  
  591.00  3.1843E-001  
  591.50  3.2052E-001  
  592.00  3.2205E-001  
  592.50  3.2253E-001  
  593.00  3.2312E-001  
  593.50  3.2370E-001  
  594.00  3.2508E-001  
  594.50  3.2611E-001  
  595.00  3.2705E-001  
  595.50  3.2801E-001  
  596.00  3.2909E-001  
  596.50  3.3011E-001  
  597.00  3.3059E-001  
  597.50  3.3081E-001  
  598.00  3.3107E-001  
  598.50  3.3177E-001  
  599.00  3.3300E-001  
  599.50  3.3465E-001  
  600.00  3.3566E-001  
  600.50  3.3659E-001  
  601.00  3.3776E-001  
  601.50  3.3930E-001  
  602.00  3.4075E-001  
  602.50  3.4189E-001  
  603.00  3.4276E-001  
  603.50  3.4325E-001  
  604.00  3.4373E-001  
  604.50  3.4409E-001  
  605.00  3.4524E-001  
  605.50  3.4661E-001  
  606.00  3.4778E-001  
  606.50  3.4923E-001  
  607.00  3.5006E-001  
  607.50  3.5127E-001  
  608.00  3.5213E-001  
  608.50  3.5325E-001  
  609.00  3.5436E-001  
  609.50  3.5558E-001  
  610.00  3.5645E-001  
  610.50  3.5683E-001  
  611.00  3.5756E-001  
  611.50  3.5884E-001  
  612.00  3.6042E-001  
  612.50  3.6126E-001  
  613.00  3.6157E-001  
  613.50  3.6217E-001  
  614.00  3.6360E-001  
  614.50  3.6502E-001  
  615.00  3.6560E-001  
  615.50  3.6614E-001  
  616.00  3.6679E-001  
  616.50  3.6802E-001  
  617.00  3.6858E-001  
  617.50  3.6903E-001  
  618.00  3.6951E-001  
  618.50  3.7039E-001  
  619.00  3.7146E-001  
  619.50  3.7280E-001  
  620.00  3.7353E-001  
  620.50  3.7378E-001  
  621.00  3.7400E-001  
  621.50  3.7464E-001  
  622.00  3.7589E-001  
  622.50  3.7655E-001  
  623.00  3.7707E-001  
  623.50  3.7765E-001  
  624.00  3.7830E-001  
  624.50  3.7940E-001  
  625.00  3.8009E-001  
  625.50  3.8061E-001  
  626.00  3.8094E-001  
  626.50  3.8137E-001  
  627.00  3.8221E-001  
  627.50  3.8299E-001  
  628.00  3.8436E-001  
  628.50  3.8604E-001  
  629.00  3.8712E-001  
  629.50  3.8767E-001  
  630.00  3.8819E-001  
  630.50  3.8878E-001  
  631.00  3.8950E-001  
  631.50  3.9080E-001  
  632.00  3.9203E-001  
  632.50  3.9286E-001  
  633.00  3.9349E-001  
  633.50  3.9457E-001  
  634.00  3.9544E-001  
  634.50  3.9586E-001  
  635.00  3.9587E-001  
  635.50  3.9653E-001  
  636.00  3.9729E-001  
  636.50  3.9807E-001  
  637.00  3.9884E-001  
  637.50  3.9978E-001  
  638.00  4.0030E-001  
  638.50  4.0114E-001  
  639.00  4.0156E-001  
  639.50  4.0235E-001  
  640.00  4.0282E-001  
  640.50  4.0353E-001  
  641.00  4.0444E-001  
  641.50  4.0521E-001  
  642.00  4.0613E-001  
  642.50  4.0691E-001  
  643.00  4.0728E-001  
  643.50  4.0791E-001  
  644.00  4.0840E-001  
  644.50  4.0981E-001  
  645.00  4.1123E-001  
  645.50  4.1214E-001  
  646.00  4.1299E-001  
  646.50  4.1342E-001  
  647.00  4.1415E-001  
  647.50  4.1482E-001  
  648.00  4.1535E-001  
  648.50  4.1656E-001  
  649.00  4.1762E-001  
  649.50  4.1850E-001  
  650.00  4.1867E-001  
  650.50  4.1959E-001  
  651.00  4.2092E-001  
  651.50  4.2234E-001  
  652.00  4.2305E-001  
  652.50  4.2255E-001  
  653.00  4.2190E-001  
  653.50  4.2119E-001  
  654.00  4.2191E-001  
  654.50  4.2330E-001  
  655.00  4.2487E-001  
  655.50  4.2584E-001  
  656.00  4.2669E-001  
  656.50  4.2705E-001  
  657.00  4.2716E-001  
  657.50  4.2763E-001  
  658.00  4.2902E-001  
  658.50  4.3106E-001  
  659.00  4.3202E-001  
  659.50  4.3189E-001  
  660.00  4.3202E-001  
  660.50  4.3191E-001  
  661.00  4.3190E-001  
  661.50  4.3200E-001  
  662.00  4.3247E-001  
  662.50  4.3421E-001  
  663.00  4.3457E-001  
  663.50  4.3493E-001  
  664.00  4.3447E-001  
  664.50  4.3461E-001  
  665.00  4.3507E-001  
  665.50  4.3452E-001  
  666.00  4.3416E-001  
  666.50  4.3394E-001  
  667.00  4.3477E-001  
  667.50  4.3577E-001  
  668.00  4.3690E-001  
  668.50  4.3789E-001  
  669.00  4.3806E-001  
  669.50  4.3786E-001  
  670.00  4.3805E-001  
  670.50  4.3866E-001  
  671.00  4.3913E-001  
  671.50  4.3919E-001  
  672.00  4.4000E-001  
  672.50  4.4087E-001  
  673.00  4.4182E-001  
  673.50  4.4146E-001  
  674.00  4.4093E-001  
  674.50  4.4100E-001  
  675.00  4.4175E-001  
  675.50  4.4276E-001  
  676.00  4.4303E-001  
  676.50  4.4253E-001  
  677.00  4.4246E-001  
  677.50  4.4271E-001  
  678.00  4.4265E-001  
  678.50  4.4239E-001  
  679.00  4.4202E-001  
  679.50  4.4289E-001  
  680.00  4.4335E-001  
  680.50  4.4385E-001  
  681.00  4.4371E-001  
  681.50  4.4408E-001  
  682.00  4.4438E-001  
  682.50  4.4523E-001  
  683.00  4.4533E-001  
  683.50  4.4542E-001  
  684.00  4.4467E-001  
  684.50  4.4473E-001  
  685.00  4.4464E-001  
  685.50  4.4503E-001  
  686.00  4.4408E-001  
  686.50  4.4396E-001  
  687.00  4.4593E-001  
  687.50  4.4863E-001  
  688.00  4.4986E-001  
  688.50  4.4867E-001  
  689.00  4.4796E-001  
  689.50  4.4818E-001  
  690.00  4.4945E-001  
  690.50  4.5059E-001  
  691.00  4.5059E-001  
  691.50  4.4959E-001  
  692.00  4.4850E-001  
  692.50  4.4832E-001  
  693.00  4.4843E-001  
  693.50  4.4892E-001  
  694.00  4.4914E-001  
  694.50  4.4936E-001  
  695.00  4.4968E-001  
  695.50  4.5078E-001  
  696.00  4.5215E-001  
  696.50  4.5361E-001  
  697.00  4.5390E-001  
  697.50  4.5430E-001  
  698.00  4.5372E-001  
  698.50  4.5360E-001  
  699.00  4.5284E-001  
  699.50  4.5263E-001  
  700.00  4.5269E-001  
  700.50  4.5280E-001  
  701.00  4.5360E-001  
  701.50  4.5439E-001  
  702.00  4.5512E-001  
  702.50  4.5540E-001  
  703.00  4.5523E-001  
  703.50  4.5574E-001  
  704.00  4.5637E-001  
  704.50  4.5728E-001  
  705.00  4.5746E-001  
  705.50  4.5779E-001  
  706.00  4.5769E-001  
  706.50  4.5748E-001  
  707.00  4.5668E-001  
  707.50  4.5759E-001  
  708.00  4.5820E-001  
  708.50  4.5942E-001  
  709.00  4.5933E-001  
  709.50  4.5989E-001  
  710.00  4.5978E-001  
  710.50  4.6045E-001  
  711.00  4.6104E-001  
  711.50  4.6072E-001  
  712.00  4.6005E-001  
  712.50  4.5949E-001  
  713.00  4.5931E-001  
  713.50  4.6038E-001  
  714.00  4.6206E-001  
  714.50  4.6257E-001  
  715.00  4.6138E-001  
  715.50  4.6043E-001  
  716.00  4.6117E-001  
  716.50  4.6189E-001  
  717.00  4.6224E-001  
  717.50  4.6230E-001  
  718.00  4.6199E-001  
  718.50  4.6144E-001  
  719.00  4.6171E-001  
  719.50  4.6164E-001  
  720.00  4.6129E-001  
  720.50  4.6138E-001  
  721.00  4.6299E-001  
  721.50  4.6362E-001  
  722.00  4.6355E-001  
  722.50  4.6370E-001  
  723.00  4.6407E-001  
  723.50  4.6420E-001  
  724.00  4.6453E-001  
  724.50  4.6523E-001  
  725.00  4.6548E-001  
  725.50  4.6558E-001  
  726.00  4.6521E-001  
  726.50  4.6513E-001  
  727.00  4.6536E-001  
  727.50  4.6571E-001  
  728.00  4.6558E-001  
  728.50  4.6603E-001  
  729.00  4.6787E-001  
  729.50  4.6926E-001  
  730.00  4.7047E-001  
  730.50  4.6963E-001  
  731.00  4.6971E-001  
  731.50  4.6950E-001  
  732.00  4.6966E-001  
  732.50  4.6980E-001  
  733.00  4.7003E-001  
  733.50  4.7050E-001  
  734.00  4.7045E-001  
  734.50  4.7081E-001  
  735.00  4.7061E-001  
  735.50  4.7032E-001  
  736.00  4.7113E-001  
  736.50  4.7179E-001  
  737.00  4.7226E-001  
  737.50  4.7208E-001  
  738.00  4.7333E-001  
  738.50  4.7363E-001  
  739.00  4.7393E-001  
  739.50  4.7402E-001  
  740.00  4.7478E-001  
  740.50  4.7404E-001  
  741.00  4.7284E-001  
  741.50  4.7280E-001  
  742.00  4.7342E-001  
  742.50  4.7460E-001  
  743.00  4.7463E-001  
  743.50  4.7596E-001  
  744.00  4.7652E-001  
  744.50  4.7734E-001  
  745.00  4.7729E-001  
  745.50  4.7653E-001  
  746.00  4.7513E-001  
  746.50  4.7494E-001  
  747.00  4.7510E-001  
  747.50  4.7593E-001  
  748.00  4.7490E-001  
  748.50  4.7476E-001  
  749.00  4.7517E-001  
  749.50  4.7646E-001  
  750.00  4.7708E-001  
  750.50  4.7786E-001  
  751.00  4.8051E-001  
  751.50  4.8089E-001  
  752.00  4.8003E-001  
  752.50  4.7925E-001  
  753.00  4.7931E-001  
  753.50  4.7860E-001  
  754.00  4.7758E-001  
  754.50  4.7825E-001  
  755.00  4.7940E-001  
  755.50  4.8006E-001  
  756.00  4.7891E-001  
  756.50  4.7880E-001  
  757.00  4.7839E-001  
  757.50  4.7909E-001  
  758.00  4.8006E-001  
  758.50  4.8094E-001  
  759.00  4.8095E-001  
  759.50  4.8025E-001  
  760.00  4.8054E-001  
  760.50  4.8107E-001  
  761.00  4.8167E-001  
  761.50  4.8274E-001  
  762.00  4.8373E-001  
  762.50  4.8429E-001  
  763.00  4.8462E-001  
  763.50  4.8403E-001  
  764.00  4.8418E-001  
  764.50  4.8462E-001  
  765.00  4.8546E-001  
  765.50  4.8534E-001  
  766.00  4.8528E-001  
  766.50  4.8550E-001  
  767.00  4.8708E-001  
  767.50  4.8704E-001  
  768.00  4.8668E-001  
  768.50  4.8626E-001  
  769.00  4.8703E-001  
  769.50  4.8728E-001  
  770.00  4.8613E-001  
  770.50  4.8565E-001  
  771.00  4.8594E-001  
  771.50  4.8604E-001  
  772.00  4.8582E-001  
  772.50  4.8650E-001  
  773.00  4.8697E-001  
  773.50  4.8803E-001  
  774.00  4.8974E-001  
  774.50  4.9122E-001  
  775.00  4.9038E-001  
  775.50  4.8851E-001  
  776.00  4.8731E-001  
  776.50  4.8711E-001  
  777.00  4.8794E-001  
  777.50  4.8936E-001  
  778.00  4.8978E-001  
  778.50  4.8900E-001  
  779.00  4.8923E-001  
  779.50  4.8886E-001  
  780.00  4.8867E-001  
  780.50  4.8875E-001  
  781.00  4.9014E-001  
  781.50  4.8933E-001  
  782.00  4.8833E-001  
  782.50  4.8872E-001  
  783.00  4.9006E-001  
  783.50  4.9186E-001  
  784.00  4.9251E-001  
  784.50  4.9273E-001  
  785.00  4.9086E-001  
  785.50  4.9020E-001  
  786.00  4.9060E-001  
  786.50  4.9305E-001  
  787.00  4.9375E-001  
  787.50  4.9355E-001  
  788.00  4.9342E-001  
  788.50  4.9405E-001  
  789.00  4.9485E-001  
  789.50  4.9548E-001  
  790.00  4.9569E-001  
  790.50  4.9648E-001  
  791.00  4.9613E-001  
  791.50  4.9629E-001  
  792.00  4.9580E-001  
  792.50  4.9680E-001  
  793.00  4.9714E-001  
  793.50  4.9501E-001  
  794.00  4.9350E-001  
  794.50  4.9440E-001  
  795.00  4.9671E-001  
  795.50  4.9691E-001  
  796.00  4.9778E-001  
  796.50  4.9821E-001  
  797.00  4.9983E-001  
  797.50  5.0027E-001  
  798.00  4.9984E-001  
  798.50  5.0048E-001  
  799.00  5.0046E-001  
  799.50  5.0133E-001  
  800.00  5.0095E-001  
  800.50  5.0131E-001  
  801.00  5.0084E-001  
  801.50  5.0198E-001  
  802.00  5.0023E-001  
  802.50  4.9997E-001  
  803.00  5.0112E-001  
  803.50  5.0207E-001  
  804.00  5.0108E-001  
  804.50  5.0061E-001  
  805.00  5.0119E-001  
  805.50  5.0415E-001  
  806.00  5.0600E-001  
  806.50  5.0637E-001  
  807.00  5.0484E-001  
  807.50  5.0532E-001  
  808.00  5.0715E-001  
  808.50  5.0739E-001  
  809.00  5.0708E-001  
  809.50  5.0601E-001  
  810.00  5.0650E-001  
  810.50  5.0705E-001  
  811.00  5.0747E-001  
  811.50  5.0763E-001  
  812.00  5.0881E-001  
  812.50  5.1014E-001  
  813.00  5.0998E-001  
  813.50  5.0906E-001  
  814.00  5.0765E-001  
  814.50  5.0666E-001  
  815.00  5.0771E-001  
  815.50  5.0952E-001  
  816.00  5.0885E-001  
  816.50  5.0761E-001  
  817.00  5.0934E-001  
  817.50  5.1024E-001  
  818.00  5.1163E-001  
  818.50  5.1151E-001  
  819.00  5.1048E-001  
  819.50  5.0856E-001  
  820.00  5.0754E-001  
  820.50  5.0941E-001  
  821.00  5.1141E-001  
  821.50  5.1217E-001  
  822.00  5.1285E-001  
  822.50  5.1278E-001  
  823.00  5.1403E-001  
  823.50  5.1542E-001  
  824.00  5.1326E-001  
  824.50  5.0977E-001  
  825.00  5.1148E-001  
  825.50  5.1396E-001  
  826.00  5.1450E-001  
  826.50  5.1527E-001  
  827.00  5.1497E-001  
  827.50  5.1392E-001  
  828.00  5.1302E-001  
  828.50  5.1252E-001  
  829.00  5.1346E-001  
  829.50  5.1261E-001  
  830.00  5.1568E-001  
  830.50  5.2007E-001  
  831.00  5.2237E-001  
  831.50  5.1928E-001  
  832.00  5.1748E-001  
  832.50  5.1724E-001  
  833.00  5.1765E-001  
  833.50  5.1532E-001  
  834.00  5.1482E-001  
  834.50  5.1578E-001  
  835.00  5.1640E-001  
  835.50  5.1693E-001  
  836.00  5.1762E-001  
  836.50  5.1805E-001  
  837.00  5.2001E-001  
  837.50  5.2098E-001  
  838.00  5.2280E-001  
  838.50  5.2092E-001  
  839.00  5.1934E-001  
  839.50  5.1794E-001  
  840.00  5.1941E-001  
  840.50  5.2000E-001  
  841.00  5.2147E-001  
  841.50  5.2059E-001  
  842.00  5.1903E-001  
  842.50  5.1615E-001  
  843.00  5.1705E-001  
  843.50  5.1894E-001  
  844.00  5.1962E-001  
  844.50  5.2012E-001  
  845.00  5.2133E-001  
  845.50  5.2038E-001  
  846.00  5.1886E-001  
  846.50  5.1995E-001  
  847.00  5.2172E-001  
  847.50  5.2292E-001  
  848.00  5.2311E-001  
  848.50  5.2349E-001  
  849.00  5.2240E-001  
  849.50  5.2185E-001  
  850.00  5.2285E-001  
  850.50  5.2481E-001  
  851.00  5.2924E-001  
  851.50  5.2957E-001  
  852.00  5.2638E-001  
  852.50  5.2347E-001  
  853.00  5.2455E-001  
  853.50  5.2455E-001  
  854.00  5.2159E-001  
  854.50  5.2082E-001  
  855.00  5.2395E-001  
  855.50  5.2591E-001  
  856.00  5.2547E-001  
  856.50  5.2782E-001  
  857.00  5.3029E-001  
  857.50  5.2943E-001  
  858.00  5.2862E-001  
  858.50  5.2979E-001  
  859.00  5.3013E-001  
  859.50  5.2827E-001  
  860.00  5.2728E-001  
  860.50  5.3029E-001  
  861.00  5.3297E-001  
  861.50  5.2944E-001  
  862.00  5.2857E-001  
  862.50  5.3068E-001  
  863.00  5.3186E-001  
  863.50  5.2917E-001  
  864.00  5.2858E-001  
  864.50  5.3011E-001  
  865.00  5.3088E-001  
  865.50  5.2861E-001  
  866.00  5.2542E-001  
  866.50  5.2333E-001  
  867.00  5.2391E-001  
  867.50  5.2669E-001  
  868.00  5.2853E-001  
  868.50  5.2937E-001  
  869.00  5.3270E-001  
  869.50  5.3298E-001  
  870.00  5.3059E-001  
  870.50  5.2973E-001  
  871.00  5.2882E-001  
  871.50  5.3083E-001  
  872.00  5.2883E-001  
  872.50  5.2699E-001  
  873.00  5.2768E-001  
  873.50  5.2919E-001  
  874.00  5.2978E-001  
  874.50  5.2932E-001  
  875.00  5.2684E-001  
  875.50  5.2372E-001  
  876.00  5.2206E-001  
  876.50  5.2073E-001  
  877.00  5.2195E-001  
  877.50  5.2557E-001  
  878.00  5.2805E-001  
  878.50  5.2894E-001  
  879.00  5.2788E-001  
  879.50  5.2660E-001  
  880.00  5.2964E-001  
  880.50  5.2967E-001  
  881.00  5.2856E-001  
  881.50  5.2790E-001  
  882.00  5.2678E-001  
  882.50  5.2724E-001  
  883.00  5.2973E-001  
  883.50  5.3131E-001  
  884.00  5.3198E-001  
  884.50  5.3544E-001  
  885.00  5.3782E-001  
  885.50  5.3399E-001  
  886.00  5.2777E-001  
  886.50  5.2169E-001  
  887.00  5.2392E-001  
  887.50  5.2772E-001  
  888.00  5.2885E-001  
  888.50  5.2545E-001  
  889.00  5.2491E-001  
  889.50  5.2708E-001  
  890.00  5.2483E-001  
  890.50  5.2459E-001  
  891.00  5.2795E-001  
  891.50  5.2817E-001  
  892.00  5.2790E-001  
  892.50  5.2802E-001  
  893.00  5.2919E-001  
  893.50  5.2699E-001  
  894.00  5.2055E-001  
  894.50  5.1798E-001  
  895.00  5.2318E-001  
  895.50  5.2734E-001  
  896.00  5.2696E-001  
  896.50  5.2455E-001  
  897.00  5.2319E-001  
  897.50  5.2265E-001  
  898.00  5.2415E-001  
  898.50  5.2562E-001  
  899.00  5.2762E-001  
  899.50  1.0453E-002  
