
# From lspdd.org
# 
# Name: INC Rona domestic-use -
# Indice spectral Valeur 
# MSI 0.25 
# SLI 0.46 
# IPI 1.03 
# Pourcentage de bleu 9.9 
# Caractéristique Valeur 
# CCT calculée (K) 2344 
# CCT du fabricant (K) 2600 
# Tension (V) 130 
# Puissance (W) 60.0 
# Efficacité lumineuse (Lum/W) ND 
#
# Image: '/app/system/img_1s/2763/medium_image1.jpg?1622001362'
# 

  273.00  0.0000E+000  
  273.50  0.0000E+000  
  274.00  0.0000E+000  
  274.50  0.0000E+000  
  275.00  0.0000E+000  
  275.50  0.0000E+000  
  276.00  0.0000E+000  
  276.50  0.0000E+000  
  277.00  0.0000E+000  
  277.50  0.0000E+000  
  278.00  0.0000E+000  
  278.50  0.0000E+000  
  279.00  0.0000E+000  
  279.50  0.0000E+000  
  280.00  0.0000E+000  
  280.50  0.0000E+000  
  281.00  0.0000E+000  
  281.50  0.0000E+000  
  282.00  0.0000E+000  
  282.50  0.0000E+000  
  283.00  0.0000E+000  
  283.50  0.0000E+000  
  284.00  0.0000E+000  
  284.50  0.0000E+000  
  285.00  0.0000E+000  
  285.50  0.0000E+000  
  286.00  0.0000E+000  
  286.50  0.0000E+000  
  287.00  0.0000E+000  
  287.50  0.0000E+000  
  288.00  0.0000E+000  
  288.50  0.0000E+000  
  289.00  0.0000E+000  
  289.50  0.0000E+000  
  290.00  0.0000E+000  
  290.50  0.0000E+000  
  291.00  0.0000E+000  
  291.50  0.0000E+000  
  292.00  0.0000E+000  
  292.50  0.0000E+000  
  293.00  0.0000E+000  
  293.50  0.0000E+000  
  294.00  0.0000E+000  
  294.50  0.0000E+000  
  295.00  0.0000E+000  
  295.50  0.0000E+000  
  296.00  0.0000E+000  
  296.50  0.0000E+000  
  297.00  0.0000E+000  
  297.50  0.0000E+000  
  298.00  0.0000E+000  
  298.50  0.0000E+000  
  299.00  0.0000E+000  
  299.50  0.0000E+000  
  300.00  0.0000E+000  
  300.50  0.0000E+000  
  301.00  0.0000E+000  
  301.50  0.0000E+000  
  302.00  0.0000E+000  
  302.50  0.0000E+000  
  303.00  0.0000E+000  
  303.50  0.0000E+000  
  304.00  0.0000E+000  
  304.50  0.0000E+000  
  305.00  0.0000E+000  
  305.50  0.0000E+000  
  306.00  0.0000E+000  
  306.50  0.0000E+000  
  307.00  0.0000E+000  
  307.50  0.0000E+000  
  308.00  8.4499E-005  
  308.50  4.8152E-005  
  309.00  2.4358E-006  
  309.50  0.0000E+000  
  310.00  0.0000E+000  
  310.50  0.0000E+000  
  311.00  0.0000E+000  
  311.50  0.0000E+000  
  312.00  0.0000E+000  
  312.50  0.0000E+000  
  313.00  0.0000E+000  
  313.50  0.0000E+000  
  314.00  0.0000E+000  
  314.50  0.0000E+000  
  315.00  0.0000E+000  
  315.50  0.0000E+000  
  316.00  0.0000E+000  
  316.50  0.0000E+000  
  317.00  0.0000E+000  
  317.50  0.0000E+000  
  318.00  0.0000E+000  
  318.50  0.0000E+000  
  319.00  0.0000E+000  
  319.50  0.0000E+000  
  320.00  0.0000E+000  
  320.50  0.0000E+000  
  321.00  0.0000E+000  
  321.50  0.0000E+000  
  322.00  0.0000E+000  
  322.50  0.0000E+000  
  323.00  0.0000E+000  
  323.50  0.0000E+000  
  324.00  0.0000E+000  
  324.50  0.0000E+000  
  325.00  0.0000E+000  
  325.50  0.0000E+000  
  326.00  0.0000E+000  
  326.50  0.0000E+000  
  327.00  0.0000E+000  
  327.50  0.0000E+000  
  328.00  0.0000E+000  
  328.50  3.5005E-006  
  329.00  1.8908E-005  
  329.50  1.9875E-006  
  330.00  0.0000E+000  
  330.50  0.0000E+000  
  331.00  0.0000E+000  
  331.50  0.0000E+000  
  332.00  5.5178E-006  
  332.50  2.2646E-004  
  333.00  4.4516E-004  
  333.50  3.9630E-004  
  334.00  1.0540E-004  
  334.50  0.0000E+000  
  335.00  0.0000E+000  
  335.50  0.0000E+000  
  336.00  0.0000E+000  
  336.50  0.0000E+000  
  337.00  0.0000E+000  
  337.50  0.0000E+000  
  338.00  0.0000E+000  
  338.50  0.0000E+000  
  339.00  0.0000E+000  
  339.50  0.0000E+000  
  340.00  0.0000E+000  
  340.50  0.0000E+000  
  341.00  0.0000E+000  
  341.50  0.0000E+000  
  342.00  0.0000E+000  
  342.50  0.0000E+000  
  343.00  0.0000E+000  
  343.50  0.0000E+000  
  344.00  0.0000E+000  
  344.50  0.0000E+000  
  345.00  0.0000E+000  
  345.50  0.0000E+000  
  346.00  0.0000E+000  
  346.50  0.0000E+000  
  347.00  0.0000E+000  
  347.50  0.0000E+000  
  348.00  0.0000E+000  
  348.50  2.1774E-006  
  349.00  1.6281E-005  
  349.50  3.0249E-007  
  350.00  0.0000E+000  
  350.50  0.0000E+000  
  351.00  0.0000E+000  
  351.50  0.0000E+000  
  352.00  0.0000E+000  
  352.50  0.0000E+000  
  353.00  0.0000E+000  
  353.50  0.0000E+000  
  354.00  0.0000E+000  
  354.50  0.0000E+000  
  355.00  0.0000E+000  
  355.50  0.0000E+000  
  356.00  0.0000E+000  
  356.50  2.3851E-005  
  357.00  1.1072E-004  
  357.50  1.8599E-004  
  358.00  1.0456E-004  
  358.50  0.0000E+000  
  359.00  0.0000E+000  
  359.50  0.0000E+000  
  360.00  0.0000E+000  
  360.50  0.0000E+000  
  361.00  0.0000E+000  
  361.50  0.0000E+000  
  362.00  0.0000E+000  
  362.50  0.0000E+000  
  363.00  0.0000E+000  
  363.50  0.0000E+000  
  364.00  0.0000E+000  
  364.50  0.0000E+000  
  365.00  0.0000E+000  
  365.50  0.0000E+000  
  366.00  0.0000E+000  
  366.50  0.0000E+000  
  367.00  0.0000E+000  
  367.50  0.0000E+000  
  368.00  0.0000E+000  
  368.50  0.0000E+000  
  369.00  0.0000E+000  
  369.50  0.0000E+000  
  370.00  2.5507E-005  
  370.50  1.6206E-004  
  371.00  3.9815E-004  
  371.50  2.7890E-004  
  372.00  2.7578E-005  
  372.50  0.0000E+000  
  373.00  0.0000E+000  
  373.50  0.0000E+000  
  374.00  6.2930E-007  
  374.50  4.8717E-005  
  375.00  1.1563E-004  
  375.50  2.4788E-004  
  376.00  2.5074E-004  
  376.50  2.5360E-004  
  377.00  3.4970E-004  
  377.50  4.6426E-004  
  378.00  6.5645E-004  
  378.50  7.0409E-004  
  379.00  5.2545E-004  
  379.50  5.1669E-004  
  380.00  5.5129E-004  
  380.50  6.7121E-004  
  381.00  7.5128E-004  
  381.50  5.8939E-004  
  382.00  5.1760E-004  
  382.50  5.3966E-004  
  383.00  6.6517E-004  
  383.50  8.1805E-004  
  384.00  7.9181E-004  
  384.50  7.2366E-004  
  385.00  7.7826E-004  
  385.50  8.0427E-004  
  386.00  7.6592E-004  
  386.50  6.7975E-004  
  387.00  6.0509E-004  
  387.50  6.9477E-004  
  388.00  9.8454E-004  
  388.50  1.3631E-003  
  389.00  1.5912E-003  
  389.50  1.6949E-003  
  390.00  1.7866E-003  
  390.50  1.8395E-003  
  391.00  1.9426E-003  
  391.50  1.9399E-003  
  392.00  2.0176E-003  
  392.50  2.1640E-003  
  393.00  2.3653E-003  
  393.50  2.4966E-003  
  394.00  2.5634E-003  
  394.50  2.4636E-003  
  395.00  2.6721E-003  
  395.50  2.7555E-003  
  396.00  2.9106E-003  
  396.50  3.0123E-003  
  397.00  3.1186E-003  
  397.50  3.2550E-003  
  398.00  3.3487E-003  
  398.50  3.5636E-003  
  399.00  3.6231E-003  
  399.50  3.6725E-003  
  400.00  3.7632E-003  
  400.50  3.6555E-003  
  401.00  3.7287E-003  
  401.50  3.8191E-003  
  402.00  3.9297E-003  
  402.50  4.0358E-003  
  403.00  4.1096E-003  
  403.50  4.1262E-003  
  404.00  4.0804E-003  
  404.50  4.2104E-003  
  405.00  4.2853E-003  
  405.50  4.4421E-003  
  406.00  4.4838E-003  
  406.50  4.3011E-003  
  407.00  4.2869E-003  
  407.50  4.4502E-003  
  408.00  4.7393E-003  
  408.50  4.9924E-003  
  409.00  5.0888E-003  
  409.50  5.1712E-003  
  410.00  5.2946E-003  
  410.50  5.5295E-003  
  411.00  5.5764E-003  
  411.50  5.5014E-003  
  412.00  5.5911E-003  
  412.50  5.7672E-003  
  413.00  5.9543E-003  
  413.50  6.1001E-003  
  414.00  6.0425E-003  
  414.50  5.9929E-003  
  415.00  6.1730E-003  
  415.50  6.3346E-003  
  416.00  6.5181E-003  
  416.50  6.5745E-003  
  417.00  6.5434E-003  
  417.50  6.6170E-003  
  418.00  6.7161E-003  
  418.50  6.8126E-003  
  419.00  6.9721E-003  
  419.50  7.0385E-003  
  420.00  7.0340E-003  
  420.50  6.9583E-003  
  421.00  6.8732E-003  
  421.50  6.8213E-003  
  422.00  6.9063E-003  
  422.50  7.0356E-003  
  423.00  7.1958E-003  
  423.50  7.3667E-003  
  424.00  7.6065E-003  
  424.50  7.8883E-003  
  425.00  8.1494E-003  
  425.50  8.3152E-003  
  426.00  8.2700E-003  
  426.50  8.1854E-003  
  427.00  8.1533E-003  
  427.50  8.4229E-003  
  428.00  8.6932E-003  
  428.50  8.9404E-003  
  429.00  9.0628E-003  
  429.50  9.0108E-003  
  430.00  9.0587E-003  
  430.50  9.1458E-003  
  431.00  9.0977E-003  
  431.50  9.3459E-003  
  432.00  9.4562E-003  
  432.50  9.5375E-003  
  433.00  9.6301E-003  
  433.50  9.6253E-003  
  434.00  9.8973E-003  
  434.50  1.0169E-002  
  435.00  1.0548E-002  
  435.50  1.0805E-002  
  436.00  1.0980E-002  
  436.50  1.1100E-002  
  437.00  1.1057E-002  
  437.50  1.0967E-002  
  438.00  1.0880E-002  
  438.50  1.0835E-002  
  439.00  1.0962E-002  
  439.50  1.1174E-002  
  440.00  1.1635E-002  
  440.50  1.1950E-002  
  441.00  1.2116E-002  
  441.50  1.2189E-002  
  442.00  1.2153E-002  
  442.50  1.2180E-002  
  443.00  1.2414E-002  
  443.50  1.2660E-002  
  444.00  1.2901E-002  
  444.50  1.2889E-002  
  445.00  1.2659E-002  
  445.50  1.2548E-002  
  446.00  1.2656E-002  
  446.50  1.2784E-002  
  447.00  1.2982E-002  
  447.50  1.3219E-002  
  448.00  1.3562E-002  
  448.50  1.3873E-002  
  449.00  1.3947E-002  
  449.50  1.3801E-002  
  450.00  1.3670E-002  
  450.50  1.3719E-002  
  451.00  1.4028E-002  
  451.50  1.4302E-002  
  452.00  1.4473E-002  
  452.50  1.4720E-002  
  453.00  1.4956E-002  
  453.50  1.5232E-002  
  454.00  1.5373E-002  
  454.50  1.5113E-002  
  455.00  1.5210E-002  
  455.50  1.5340E-002  
  456.00  1.5718E-002  
  456.50  1.5973E-002  
  457.00  1.6179E-002  
  457.50  1.6265E-002  
  458.00  1.6381E-002  
  458.50  1.6569E-002  
  459.00  1.6736E-002  
  459.50  1.6987E-002  
  460.00  1.7201E-002  
  460.50  1.7230E-002  
  461.00  1.7446E-002  
  461.50  1.7611E-002  
  462.00  1.8006E-002  
  462.50  1.8358E-002  
  463.00  1.8637E-002  
  463.50  1.8775E-002  
  464.00  1.8750E-002  
  464.50  1.8844E-002  
  465.00  1.8845E-002  
  465.50  1.9055E-002  
  466.00  1.9251E-002  
  466.50  1.9528E-002  
  467.00  1.9835E-002  
  467.50  2.0184E-002  
  468.00  2.0532E-002  
  468.50  2.0715E-002  
  469.00  2.0764E-002  
  469.50  2.0770E-002  
  470.00  2.0955E-002  
  470.50  2.1294E-002  
  471.00  2.1663E-002  
  471.50  2.1992E-002  
  472.00  2.2327E-002  
  472.50  2.2594E-002  
  473.00  2.2845E-002  
  473.50  2.2950E-002  
  474.00  2.2960E-002  
  474.50  2.3046E-002  
  475.00  2.2995E-002  
  475.50  2.3011E-002  
  476.00  2.2914E-002  
  476.50  2.3079E-002  
  477.00  2.3420E-002  
  477.50  2.3769E-002  
  478.00  2.4057E-002  
  478.50  2.4103E-002  
  479.00  2.4230E-002  
  479.50  2.4528E-002  
  480.00  2.4925E-002  
  480.50  2.5283E-002  
  481.00  2.5349E-002  
  481.50  2.5435E-002  
  482.00  2.5637E-002  
  482.50  2.5976E-002  
  483.00  2.6334E-002  
  483.50  2.6549E-002  
  484.00  2.6677E-002  
  484.50  2.6737E-002  
  485.00  2.6717E-002  
  485.50  2.6696E-002  
  486.00  2.6794E-002  
  486.50  2.7055E-002  
  487.00  2.7255E-002  
  487.50  2.7304E-002  
  488.00  2.7275E-002  
  488.50  2.7316E-002  
  489.00  2.7440E-002  
  489.50  2.7523E-002  
  490.00  2.7447E-002  
  490.50  2.7519E-002  
  491.00  2.7806E-002  
  491.50  2.8235E-002  
  492.00  2.8546E-002  
  492.50  2.8735E-002  
  493.00  2.8697E-002  
  493.50  2.8678E-002  
  494.00  2.8607E-002  
  494.50  2.8634E-002  
  495.00  2.8841E-002  
  495.50  2.9098E-002  
  496.00  2.9358E-002  
  496.50  2.9569E-002  
  497.00  2.9792E-002  
  497.50  2.9906E-002  
  498.00  3.0025E-002  
  498.50  3.0156E-002  
  499.00  3.0337E-002  
  499.50  3.0511E-002  
  500.00  3.0633E-002  
  500.50  3.0853E-002  
  501.00  3.1056E-002  
  501.50  3.1320E-002  
  502.00  3.1518E-002  
  502.50  3.1817E-002  
  503.00  3.2099E-002  
  503.50  3.2349E-002  
  504.00  3.2622E-002  
  504.50  3.2770E-002  
  505.00  3.2991E-002  
  505.50  3.3107E-002  
  506.00  3.3154E-002  
  506.50  3.3361E-002  
  507.00  3.3468E-002  
  507.50  3.3713E-002  
  508.00  3.3979E-002  
  508.50  3.4327E-002  
  509.00  3.4622E-002  
  509.50  3.4925E-002  
  510.00  3.5172E-002  
  510.50  3.5357E-002  
  511.00  3.5598E-002  
  511.50  3.5792E-002  
  512.00  3.6172E-002  
  512.50  3.6417E-002  
  513.00  3.6531E-002  
  513.50  3.6598E-002  
  514.00  3.6733E-002  
  514.50  3.7058E-002  
  515.00  3.7431E-002  
  515.50  3.7887E-002  
  516.00  3.8265E-002  
  516.50  3.8464E-002  
  517.00  3.8623E-002  
  517.50  3.8752E-002  
  518.00  3.9051E-002  
  518.50  3.9459E-002  
  519.00  3.9901E-002  
  519.50  4.0245E-002  
  520.00  4.0511E-002  
  520.50  4.0750E-002  
  521.00  4.1079E-002  
  521.50  4.1326E-002  
  522.00  4.1462E-002  
  522.50  4.1547E-002  
  523.00  4.1834E-002  
  523.50  4.2350E-002  
  524.00  4.2762E-002  
  524.50  4.3105E-002  
  525.00  4.3431E-002  
  525.50  4.3916E-002  
  526.00  4.4325E-002  
  526.50  4.4536E-002  
  527.00  4.4672E-002  
  527.50  4.4837E-002  
  528.00  4.5141E-002  
  528.50  4.5545E-002  
  529.00  4.5857E-002  
  529.50  4.6120E-002  
  530.00  4.6395E-002  
  530.50  4.6776E-002  
  531.00  4.7379E-002  
  531.50  4.7955E-002  
  532.00  4.8572E-002  
  532.50  4.8903E-002  
  533.00  4.9272E-002  
  533.50  4.9366E-002  
  534.00  4.9553E-002  
  534.50  4.9755E-002  
  535.00  4.9942E-002  
  535.50  5.0306E-002  
  536.00  5.0611E-002  
  536.50  5.1175E-002  
  537.00  5.1614E-002  
  537.50  5.2114E-002  
  538.00  5.2561E-002  
  538.50  5.3105E-002  
  539.00  5.3654E-002  
  539.50  5.4017E-002  
  540.00  5.4241E-002  
  540.50  5.4535E-002  
  541.00  5.4928E-002  
  541.50  5.5360E-002  
  542.00  5.5621E-002  
  542.50  5.5791E-002  
  543.00  5.6198E-002  
  543.50  5.6784E-002  
  544.00  5.7514E-002  
  544.50  5.8042E-002  
  545.00  5.8359E-002  
  545.50  5.8665E-002  
  546.00  5.9009E-002  
  546.50  5.9198E-002  
  547.00  5.9360E-002  
  547.50  5.9513E-002  
  548.00  6.0069E-002  
  548.50  6.0806E-002  
  549.00  6.1616E-002  
  549.50  6.2281E-002  
  550.00  6.2751E-002  
  550.50  6.3180E-002  
  551.00  6.3557E-002  
  551.50  6.3794E-002  
  552.00  6.4062E-002  
  552.50  6.4418E-002  
  553.00  6.4966E-002  
  553.50  6.5463E-002  
  554.00  6.5928E-002  
  554.50  6.6503E-002  
  555.00  6.7160E-002  
  555.50  6.7618E-002  
  556.00  6.7954E-002  
  556.50  6.8115E-002  
  557.00  6.8499E-002  
  557.50  6.8757E-002  
  558.00  6.9133E-002  
  558.50  6.9574E-002  
  559.00  7.0043E-002  
  559.50  7.0528E-002  
  560.00  7.1122E-002  
  560.50  7.1659E-002  
  561.00  7.2370E-002  
  561.50  7.2977E-002  
  562.00  7.3408E-002  
  562.50  7.3851E-002  
  563.00  7.4129E-002  
  563.50  7.4543E-002  
  564.00  7.4836E-002  
  564.50  7.5169E-002  
  565.00  7.5597E-002  
  565.50  7.6200E-002  
  566.00  7.6787E-002  
  566.50  7.7122E-002  
  567.00  7.7419E-002  
  567.50  7.7874E-002  
  568.00  7.8403E-002  
  568.50  7.8735E-002  
  569.00  7.8917E-002  
  569.50  7.9260E-002  
  570.00  7.9728E-002  
  570.50  8.0219E-002  
  571.00  8.0489E-002  
  571.50  8.0706E-002  
  572.00  8.1161E-002  
  572.50  8.1850E-002  
  573.00  8.2584E-002  
  573.50  8.3199E-002  
  574.00  8.3417E-002  
  574.50  8.3706E-002  
  575.00  8.4024E-002  
  575.50  8.4595E-002  
  576.00  8.5175E-002  
  576.50  8.5661E-002  
  577.00  8.6177E-002  
  577.50  8.6520E-002  
  578.00  8.6815E-002  
  578.50  8.7043E-002  
  579.00  8.7344E-002  
  579.50  8.7824E-002  
  580.00  8.8485E-002  
  580.50  8.9228E-002  
  581.00  8.9825E-002  
  581.50  9.0193E-002  
  582.00  9.0308E-002  
  582.50  9.0472E-002  
  583.00  9.0950E-002  
  583.50  9.1431E-002  
  584.00  9.1829E-002  
  584.50  9.2198E-002  
  585.00  9.2641E-002  
  585.50  9.3157E-002  
  586.00  9.3651E-002  
  586.50  9.3904E-002  
  587.00  9.4224E-002  
  587.50  9.4968E-002  
  588.00  9.5496E-002  
  588.50  9.6070E-002  
  589.00  9.5976E-002  
  589.50  9.6239E-002  
  590.00  9.6587E-002  
  590.50  9.7098E-002  
  591.00  9.7644E-002  
  591.50  9.8321E-002  
  592.00  9.8880E-002  
  592.50  9.9272E-002  
  593.00  9.9532E-002  
  593.50  9.9913E-002  
  594.00  1.0038E-001  
  594.50  1.0086E-001  
  595.00  1.0119E-001  
  595.50  1.0161E-001  
  596.00  1.0215E-001  
  596.50  1.0260E-001  
  597.00  1.0308E-001  
  597.50  1.0345E-001  
  598.00  1.0367E-001  
  598.50  1.0412E-001  
  599.00  1.0454E-001  
  599.50  1.0525E-001  
  600.00  1.0573E-001  
  600.50  1.0598E-001  
  601.00  1.0622E-001  
  601.50  1.0632E-001  
  602.00  1.0664E-001  
  602.50  1.0689E-001  
  603.00  1.0733E-001  
  603.50  1.0755E-001  
  604.00  1.0809E-001  
  604.50  1.0841E-001  
  605.00  1.0877E-001  
  605.50  1.0915E-001  
  606.00  1.0952E-001  
  606.50  1.1022E-001  
  607.00  1.1060E-001  
  607.50  1.1115E-001  
  608.00  1.1143E-001  
  608.50  1.1168E-001  
  609.00  1.1191E-001  
  609.50  1.1228E-001  
  610.00  1.1284E-001  
  610.50  1.1326E-001  
  611.00  1.1366E-001  
  611.50  1.1417E-001  
  612.00  1.1464E-001  
  612.50  1.1489E-001  
  613.00  1.1489E-001  
  613.50  1.1518E-001  
  614.00  1.1573E-001  
  614.50  1.1627E-001  
  615.00  1.1655E-001  
  615.50  1.1692E-001  
  616.00  1.1719E-001  
  616.50  1.1763E-001  
  617.00  1.1795E-001  
  617.50  1.1849E-001  
  618.00  1.1890E-001  
  618.50  1.1925E-001  
  619.00  1.1964E-001  
  619.50  1.2015E-001  
  620.00  1.2047E-001  
  620.50  1.2071E-001  
  621.00  1.2092E-001  
  621.50  1.2096E-001  
  622.00  1.2099E-001  
  622.50  1.2135E-001  
  623.00  1.2185E-001  
  623.50  1.2209E-001  
  624.00  1.2232E-001  
  624.50  1.2268E-001  
  625.00  1.2320E-001  
  625.50  1.2329E-001  
  626.00  1.2346E-001  
  626.50  1.2374E-001  
  627.00  1.2419E-001  
  627.50  1.2439E-001  
  628.00  1.2500E-001  
  628.50  1.2588E-001  
  629.00  1.2679E-001  
  629.50  1.2731E-001  
  630.00  1.2755E-001  
  630.50  1.2771E-001  
  631.00  1.2796E-001  
  631.50  1.2828E-001  
  632.00  1.2864E-001  
  632.50  1.2900E-001  
  633.00  1.2939E-001  
  633.50  1.3012E-001  
  634.00  1.3082E-001  
  634.50  1.3131E-001  
  635.00  1.3123E-001  
  635.50  1.3134E-001  
  636.00  1.3167E-001  
  636.50  1.3199E-001  
  637.00  1.3225E-001  
  637.50  1.3241E-001  
  638.00  1.3264E-001  
  638.50  1.3272E-001  
  639.00  1.3284E-001  
  639.50  1.3368E-001  
  640.00  1.3466E-001  
  640.50  1.3510E-001  
  641.00  1.3486E-001  
  641.50  1.3456E-001  
  642.00  1.3479E-001  
  642.50  1.3565E-001  
  643.00  1.3625E-001  
  643.50  1.3714E-001  
  644.00  1.3747E-001  
  644.50  1.3788E-001  
  645.00  1.3790E-001  
  645.50  1.3787E-001  
  646.00  1.3815E-001  
  646.50  1.3867E-001  
  647.00  1.3935E-001  
  647.50  1.3974E-001  
  648.00  1.3990E-001  
  648.50  1.4004E-001  
  649.00  1.4041E-001  
  649.50  1.4103E-001  
  650.00  1.4124E-001  
  650.50  1.4144E-001  
  651.00  1.4146E-001  
  651.50  1.4193E-001  
  652.00  1.4256E-001  
  652.50  1.4282E-001  
  653.00  1.4288E-001  
  653.50  1.4290E-001  
  654.00  1.4357E-001  
  654.50  1.4446E-001  
  655.00  1.4512E-001  
  655.50  1.4550E-001  
  656.00  1.4600E-001  
  656.50  1.4608E-001  
  657.00  1.4580E-001  
  657.50  1.4566E-001  
  658.00  1.4595E-001  
  658.50  1.4669E-001  
  659.00  1.4667E-001  
  659.50  1.4668E-001  
  660.00  1.4709E-001  
  660.50  1.4788E-001  
  661.00  1.4845E-001  
  661.50  1.4870E-001  
  662.00  1.4902E-001  
  662.50  1.4952E-001  
  663.00  1.4957E-001  
  663.50  1.4990E-001  
  664.00  1.4987E-001  
  664.50  1.4945E-001  
  665.00  1.4915E-001  
  665.50  1.4917E-001  
  666.00  1.4973E-001  
  666.50  1.5005E-001  
  667.00  1.5052E-001  
  667.50  1.5105E-001  
  668.00  1.5178E-001  
  668.50  1.5240E-001  
  669.00  1.5281E-001  
  669.50  1.5272E-001  
  670.00  1.5255E-001  
  670.50  1.5266E-001  
  671.00  1.5331E-001  
  671.50  1.5410E-001  
  672.00  1.5432E-001  
  672.50  1.5391E-001  
  673.00  1.5364E-001  
  673.50  1.5391E-001  
  674.00  1.5415E-001  
  674.50  1.5422E-001  
  675.00  1.5438E-001  
  675.50  1.5489E-001  
  676.00  1.5519E-001  
  676.50  1.5489E-001  
  677.00  1.5431E-001  
  677.50  1.5385E-001  
  678.00  1.5363E-001  
  678.50  1.5405E-001  
  679.00  1.5470E-001  
  679.50  1.5561E-001  
  680.00  1.5604E-001  
  680.50  1.5654E-001  
  681.00  1.5685E-001  
  681.50  1.5699E-001  
  682.00  1.5694E-001  
  682.50  1.5712E-001  
  683.00  1.5695E-001  
  683.50  1.5686E-001  
  684.00  1.5668E-001  
  684.50  1.5693E-001  
  685.00  1.5693E-001  
  685.50  1.5752E-001  
  686.00  1.5789E-001  
  686.50  1.5822E-001  
  687.00  1.5847E-001  
  687.50  1.5947E-001  
  688.00  1.6033E-001  
  688.50  1.6056E-001  
  689.00  1.6011E-001  
  689.50  1.5978E-001  
  690.00  1.5997E-001  
  690.50  1.6044E-001  
  691.00  1.6066E-001  
  691.50  1.6050E-001  
  692.00  1.6052E-001  
  692.50  1.6065E-001  
  693.00  1.6058E-001  
  693.50  1.6042E-001  
  694.00  1.6064E-001  
  694.50  1.6098E-001  
  695.00  1.6129E-001  
  695.50  1.6137E-001  
  696.00  1.6205E-001  
  696.50  1.6303E-001  
  697.00  1.6389E-001  
  697.50  1.6412E-001  
  698.00  1.6368E-001  
  698.50  1.6332E-001  
  699.00  1.6299E-001  
  699.50  1.6313E-001  
  700.00  1.6302E-001  
  700.50  1.6306E-001  
  701.00  1.6356E-001  
  701.50  1.6467E-001  
  702.00  1.6587E-001  
  702.50  1.6637E-001  
  703.00  1.6585E-001  
  703.50  1.6542E-001  
  704.00  1.6515E-001  
  704.50  1.6557E-001  
  705.00  1.6603E-001  
  705.50  1.6618E-001  
  706.00  1.6600E-001  
  706.50  1.6573E-001  
  707.00  1.6591E-001  
  707.50  1.6654E-001  
  708.00  1.6727E-001  
  708.50  1.6808E-001  
  709.00  1.6809E-001  
  709.50  1.6834E-001  
  710.00  1.6854E-001  
  710.50  1.6887E-001  
  711.00  1.6855E-001  
  711.50  1.6855E-001  
  712.00  1.6890E-001  
  712.50  1.6903E-001  
  713.00  1.6901E-001  
  713.50  1.6932E-001  
  714.00  1.7003E-001  
  714.50  1.7018E-001  
  715.00  1.6992E-001  
  715.50  1.6971E-001  
  716.00  1.6983E-001  
  716.50  1.6975E-001  
  717.00  1.7029E-001  
  717.50  1.7114E-001  
  718.00  1.7220E-001  
  718.50  1.7231E-001  
  719.00  1.7228E-001  
  719.50  1.7243E-001  
  720.00  1.7255E-001  
  720.50  1.7259E-001  
  721.00  1.7256E-001  
  721.50  1.7293E-001  
  722.00  1.7308E-001  
  722.50  1.7338E-001  
  723.00  1.7320E-001  
  723.50  1.7318E-001  
  724.00  1.7345E-001  
  724.50  1.7333E-001  
  725.00  1.7300E-001  
  725.50  1.7249E-001  
  726.00  1.7204E-001  
  726.50  1.7224E-001  
  727.00  1.7292E-001  
  727.50  1.7416E-001  
  728.00  1.7504E-001  
  728.50  1.7557E-001  
  729.00  1.7583E-001  
  729.50  1.7617E-001  
  730.00  1.7674E-001  
  730.50  1.7680E-001  
  731.00  1.7653E-001  
  731.50  1.7655E-001  
  732.00  1.7692E-001  
  732.50  1.7723E-001  
  733.00  1.7784E-001  
  733.50  1.7794E-001  
  734.00  1.7811E-001  
  734.50  1.7828E-001  
  735.00  1.7818E-001  
  735.50  1.7802E-001  
  736.00  1.7792E-001  
  736.50  1.7837E-001  
  737.00  1.7873E-001  
  737.50  1.7888E-001  
  738.00  1.7916E-001  
  738.50  1.8024E-001  
  739.00  1.8126E-001  
  739.50  1.8132E-001  
  740.00  1.8080E-001  
  740.50  1.8018E-001  
  741.00  1.8008E-001  
  741.50  1.8052E-001  
  742.00  1.8153E-001  
  742.50  1.8241E-001  
  743.00  1.8261E-001  
  743.50  1.8236E-001  
  744.00  1.8232E-001  
  744.50  1.8276E-001  
  745.00  1.8258E-001  
  745.50  1.8227E-001  
  746.00  1.8136E-001  
  746.50  1.8175E-001  
  747.00  1.8213E-001  
  747.50  1.8282E-001  
  748.00  1.8219E-001  
  748.50  1.8219E-001  
  749.00  1.8308E-001  
  749.50  1.8443E-001  
  750.00  1.8512E-001  
  750.50  1.8485E-001  
  751.00  1.8501E-001  
  751.50  1.8448E-001  
  752.00  1.8440E-001  
  752.50  1.8475E-001  
  753.00  1.8583E-001  
  753.50  1.8617E-001  
  754.00  1.8644E-001  
  754.50  1.8647E-001  
  755.00  1.8631E-001  
  755.50  1.8551E-001  
  756.00  1.8581E-001  
  756.50  1.8618E-001  
  757.00  1.8668E-001  
  757.50  1.8725E-001  
  758.00  1.8807E-001  
  758.50  1.8804E-001  
  759.00  1.8742E-001  
  759.50  1.8738E-001  
  760.00  1.8779E-001  
  760.50  1.8866E-001  
  761.00  1.8883E-001  
  761.50  1.8867E-001  
  762.00  1.8821E-001  
  762.50  1.8842E-001  
  763.00  1.8930E-001  
  763.50  1.8992E-001  
  764.00  1.8993E-001  
  764.50  1.8976E-001  
  765.00  1.8970E-001  
  765.50  1.8990E-001  
  766.00  1.9023E-001  
  766.50  1.9054E-001  
  767.00  1.9106E-001  
  767.50  1.9180E-001  
  768.00  1.9212E-001  
  768.50  1.9229E-001  
  769.00  1.9226E-001  
  769.50  1.9345E-001  
  770.00  1.9358E-001  
  770.50  1.9348E-001  
  771.00  1.9268E-001  
  771.50  1.9262E-001  
  772.00  1.9251E-001  
  772.50  1.9315E-001  
  773.00  1.9400E-001  
  773.50  1.9380E-001  
  774.00  1.9310E-001  
  774.50  1.9347E-001  
  775.00  1.9363E-001  
  775.50  1.9344E-001  
  776.00  1.9326E-001  
  776.50  1.9405E-001  
  777.00  1.9502E-001  
  777.50  1.9566E-001  
  778.00  1.9577E-001  
  778.50  1.9452E-001  
  779.00  1.9433E-001  
  779.50  1.9444E-001  
  780.00  1.9595E-001  
  780.50  1.9606E-001  
  781.00  1.9594E-001  
  781.50  1.9520E-001  
  782.00  1.9629E-001  
  782.50  1.9793E-001  
  783.00  1.9908E-001  
  783.50  1.9920E-001  
  784.00  1.9884E-001  
  784.50  1.9848E-001  
  785.00  1.9858E-001  
  785.50  1.9894E-001  
  786.00  1.9931E-001  
  786.50  1.9942E-001  
  787.00  1.9921E-001  
  787.50  1.9996E-001  
  788.00  2.0114E-001  
  788.50  2.0155E-001  
  789.00  2.0106E-001  
  789.50  2.0016E-001  
  790.00  2.0055E-001  
  790.50  2.0092E-001  
  791.00  2.0084E-001  
  791.50  2.0025E-001  
  792.00  2.0002E-001  
  792.50  2.0105E-001  
  793.00  2.0267E-001  
  793.50  2.0336E-001  
  794.00  2.0283E-001  
  794.50  2.0385E-001  
  795.00  2.0545E-001  
  795.50  2.0561E-001  
  796.00  2.0427E-001  
  796.50  2.0294E-001  
  797.00  2.0357E-001  
  797.50  2.0447E-001  
  798.00  2.0531E-001  
  798.50  2.0662E-001  
  799.00  2.0779E-001  
  799.50  2.0709E-001  
  800.00  2.0609E-001  
  800.50  2.0559E-001  
  801.00  2.0616E-001  
  801.50  2.0559E-001  
  802.00  2.0535E-001  
  802.50  2.0554E-001  
  803.00  2.0653E-001  
  803.50  2.0742E-001  
  804.00  2.0779E-001  
  804.50  2.0822E-001  
  805.00  2.0865E-001  
  805.50  2.0882E-001  
  806.00  2.0942E-001  
  806.50  2.1019E-001  
  807.00  2.0969E-001  
  807.50  2.0957E-001  
  808.00  2.0957E-001  
  808.50  2.0897E-001  
  809.00  2.0856E-001  
  809.50  2.0864E-001  
  810.00  2.0913E-001  
  810.50  2.0964E-001  
  811.00  2.1079E-001  
  811.50  2.1131E-001  
  812.00  2.1204E-001  
  812.50  2.1155E-001  
  813.00  2.1103E-001  
  813.50  2.1011E-001  
  814.00  2.1007E-001  
  814.50  2.1175E-001  
  815.00  2.1553E-001  
  815.50  2.1693E-001  
  816.00  2.1719E-001  
  816.50  2.1580E-001  
  817.00  2.1520E-001  
  817.50  2.1530E-001  
  818.00  2.1696E-001  
  818.50  2.1692E-001  
  819.00  2.1476E-001  
  819.50  2.1369E-001  
  820.00  2.1339E-001  
  820.50  2.1499E-001  
  821.00  2.1516E-001  
  821.50  2.1488E-001  
  822.00  2.1595E-001  
  822.50  2.1615E-001  
  823.00  2.1660E-001  
  823.50  2.1659E-001  
  824.00  2.1641E-001  
  824.50  2.1558E-001  
  825.00  2.1542E-001  
  825.50  2.1571E-001  
  826.00  2.1858E-001  
  826.50  2.2045E-001  
  827.00  2.2149E-001  
  827.50  2.2021E-001  
  828.00  2.2031E-001  
  828.50  2.2047E-001  
  829.00  2.2084E-001  
  829.50  2.2028E-001  
  830.00  2.1989E-001  
  830.50  2.1816E-001  
  831.00  2.1806E-001  
  831.50  2.2057E-001  
  832.00  2.2214E-001  
  832.50  2.2074E-001  
  833.00  2.2061E-001  
  833.50  2.2125E-001  
  834.00  2.2204E-001  
  834.50  2.2250E-001  
  835.00  2.2280E-001  
  835.50  2.2292E-001  
  836.00  2.2343E-001  
  836.50  2.2294E-001  
  837.00  2.2151E-001  
  837.50  2.2230E-001  
  838.00  2.2332E-001  
  838.50  2.2344E-001  
  839.00  2.2354E-001  
  839.50  2.2389E-001  
  840.00  2.2457E-001  
  840.50  2.2585E-001  
  841.00  2.2668E-001  
  841.50  2.2552E-001  
  842.00  2.2419E-001  
  842.50  2.2359E-001  
  843.00  2.2423E-001  
  843.50  2.2511E-001  
  844.00  2.2519E-001  
  844.50  2.2502E-001  
  845.00  2.2648E-001  
  845.50  2.2759E-001  
  846.00  2.2891E-001  
  846.50  2.2873E-001  
  847.00  2.2932E-001  
  847.50  2.2892E-001  
  848.00  2.2674E-001  
  848.50  2.2554E-001  
  849.00  2.2585E-001  
  849.50  2.2701E-001  
  850.00  2.2664E-001  
  850.50  2.2884E-001  
  851.00  2.3126E-001  
  851.50  2.3302E-001  
  852.00  2.3214E-001  
  852.50  2.3079E-001  
  853.00  2.3138E-001  
  853.50  2.3131E-001  
  854.00  2.2969E-001  
  854.50  2.2806E-001  
  855.00  2.2833E-001  
  855.50  2.3078E-001  
  856.00  2.3389E-001  
  856.50  2.3460E-001  
  857.00  2.3336E-001  
  857.50  2.3265E-001  
  858.00  2.3154E-001  
  858.50  2.3144E-001  
  859.00  2.3287E-001  
  859.50  2.3323E-001  
  860.00  2.3377E-001  
  860.50  2.3440E-001  
  861.00  2.3351E-001  
  861.50  2.3187E-001  
  862.00  2.3319E-001  
  862.50  2.3743E-001  
  863.00  2.3776E-001  
  863.50  2.3500E-001  
  864.00  2.3365E-001  
  864.50  2.3302E-001  
  865.00  2.3329E-001  
  865.50  2.3589E-001  
  866.00  2.3698E-001  
  866.50  2.3424E-001  
  867.00  2.3392E-001  
  867.50  2.3583E-001  
  868.00  2.3845E-001  
  868.50  2.3970E-001  
  869.00  2.3986E-001  
  869.50  2.3732E-001  
  870.00  2.3550E-001  
  870.50  2.3728E-001  
  871.00  2.3879E-001  
  871.50  2.3843E-001  
  872.00  2.3555E-001  
  872.50  2.3581E-001  
  873.00  2.3745E-001  
  873.50  2.3763E-001  
  874.00  2.3593E-001  
  874.50  2.3639E-001  
  875.00  2.3650E-001  
  875.50  2.3818E-001  
  876.00  2.3967E-001  
  876.50  2.3919E-001  
  877.00  2.3814E-001  
  877.50  2.4214E-001  
  878.00  2.4051E-001  
  878.50  2.3631E-001  
  879.00  2.3669E-001  
  879.50  2.3894E-001  
  880.00  2.3837E-001  
  880.50  2.3691E-001  
  881.00  2.4067E-001  
  881.50  2.4413E-001  
  882.00  2.4387E-001  
  882.50  2.4295E-001  
  883.00  2.4343E-001  
  883.50  2.4342E-001  
  884.00  2.4151E-001  
  884.50  2.4148E-001  
  885.00  2.4328E-001  
  885.50  2.4241E-001  
  886.00  2.4024E-001  
  886.50  2.3670E-001  
  887.00  2.3663E-001  
  887.50  2.3805E-001  
  888.00  2.4030E-001  
  888.50  2.4110E-001  
  889.00  2.3946E-001  
  889.50  2.3950E-001  
  890.00  2.4060E-001  
  890.50  2.4014E-001  
  891.00  2.4268E-001  
  891.50  2.4551E-001  
  892.00  2.4577E-001  
  892.50  2.4173E-001  
  893.00  2.4237E-001  
  893.50  2.4375E-001  
  894.00  2.4237E-001  
  894.50  2.4030E-001  
  895.00  2.4131E-001  
  895.50  2.4491E-001  
  896.00  2.4667E-001  
  896.50  2.4656E-001  
  897.00  2.4658E-001  
  897.50  2.4629E-001  
  898.00  2.4623E-001  
  898.50  2.4797E-001  
  899.00  2.5007E-001  
  899.50  4.9427E-003  
