
# From lspdd.org
# 
# Name: INC Standard A21 -
# Indice spectral Valeur 
# MSI 0.26 
# SLI 0.47 
# IPI 1.03 
# Pourcentage de bleu 10.4 
# Caractéristique Valeur 
# CCT calculée (K) 2371 
# CCT du fabricant (K) 2500 
# Tension (V) 130 
# Puissance (W) 150.0 
# Efficacité lumineuse (Lum/W) ND 
#
# Image: '/app/system/img_1s/2765/medium_image1.jpg?1622001363'
# 

  273.00  0.0000E+000  
  273.50  0.0000E+000  
  274.00  0.0000E+000  
  274.50  0.0000E+000  
  275.00  0.0000E+000  
  275.50  0.0000E+000  
  276.00  0.0000E+000  
  276.50  0.0000E+000  
  277.00  0.0000E+000  
  277.50  0.0000E+000  
  278.00  0.0000E+000  
  278.50  0.0000E+000  
  279.00  0.0000E+000  
  279.50  0.0000E+000  
  280.00  0.0000E+000  
  280.50  0.0000E+000  
  281.00  0.0000E+000  
  281.50  0.0000E+000  
  282.00  0.0000E+000  
  282.50  0.0000E+000  
  283.00  0.0000E+000  
  283.50  0.0000E+000  
  284.00  0.0000E+000  
  284.50  0.0000E+000  
  285.00  0.0000E+000  
  285.50  0.0000E+000  
  286.00  0.0000E+000  
  286.50  0.0000E+000  
  287.00  0.0000E+000  
  287.50  0.0000E+000  
  288.00  0.0000E+000  
  288.50  0.0000E+000  
  289.00  0.0000E+000  
  289.50  0.0000E+000  
  290.00  0.0000E+000  
  290.50  0.0000E+000  
  291.00  0.0000E+000  
  291.50  0.0000E+000  
  292.00  0.0000E+000  
  292.50  0.0000E+000  
  293.00  0.0000E+000  
  293.50  0.0000E+000  
  294.00  0.0000E+000  
  294.50  0.0000E+000  
  295.00  0.0000E+000  
  295.50  0.0000E+000  
  296.00  0.0000E+000  
  296.50  0.0000E+000  
  297.00  0.0000E+000  
  297.50  0.0000E+000  
  298.00  0.0000E+000  
  298.50  0.0000E+000  
  299.00  0.0000E+000  
  299.50  0.0000E+000  
  300.00  1.0667E-004  
  300.50  3.2283E-004  
  301.00  4.8044E-004  
  301.50  5.7530E-004  
  302.00  5.5303E-004  
  302.50  5.2231E-004  
  303.00  3.7267E-004  
  303.50  3.5430E-004  
  304.00  2.5175E-004  
  304.50  2.0773E-004  
  305.00  2.7118E-004  
  305.50  3.4572E-004  
  306.00  6.2629E-004  
  306.50  5.8659E-004  
  307.00  4.9889E-004  
  307.50  5.1260E-004  
  308.00  6.2542E-004  
  308.50  7.4319E-004  
  309.00  8.7429E-004  
  309.50  7.6595E-004  
  310.00  6.8364E-004  
  310.50  5.8162E-004  
  311.00  5.1994E-004  
  311.50  6.3907E-004  
  312.00  9.1573E-004  
  312.50  1.3509E-003  
  313.00  1.4155E-003  
  313.50  1.2054E-003  
  314.00  9.6726E-004  
  314.50  6.4247E-004  
  315.00  6.2197E-004  
  315.50  4.3094E-004  
  316.00  3.5995E-004  
  316.50  2.9549E-004  
  317.00  2.8480E-004  
  317.50  4.1281E-004  
  318.00  5.0675E-004  
  318.50  6.2360E-004  
  319.00  7.5882E-004  
  319.50  9.1027E-004  
  320.00  9.7977E-004  
  320.50  9.6573E-004  
  321.00  8.8598E-004  
  321.50  9.4534E-004  
  322.00  9.7679E-004  
  322.50  1.1429E-003  
  323.00  1.2298E-003  
  323.50  1.1130E-003  
  324.00  1.2137E-003  
  324.50  1.3076E-003  
  325.00  1.4172E-003  
  325.50  1.3826E-003  
  326.00  1.2454E-003  
  326.50  1.0194E-003  
  327.00  1.0371E-003  
  327.50  1.1580E-003  
  328.00  1.5450E-003  
  328.50  1.9505E-003  
  329.00  2.1620E-003  
  329.50  2.0409E-003  
  330.00  1.7474E-003  
  330.50  1.6028E-003  
  331.00  1.4265E-003  
  331.50  1.6688E-003  
  332.00  1.8049E-003  
  332.50  1.8765E-003  
  333.00  2.0714E-003  
  333.50  2.0058E-003  
  334.00  1.8194E-003  
  334.50  1.5780E-003  
  335.00  1.3665E-003  
  335.50  1.3452E-003  
  336.00  1.5009E-003  
  336.50  1.8400E-003  
  337.00  2.0576E-003  
  337.50  2.1223E-003  
  338.00  1.8984E-003  
  338.50  1.7686E-003  
  339.00  1.7925E-003  
  339.50  1.7937E-003  
  340.00  2.0544E-003  
  340.50  1.9668E-003  
  341.00  1.8164E-003  
  341.50  1.7488E-003  
  342.00  1.5347E-003  
  342.50  1.5494E-003  
  343.00  1.6519E-003  
  343.50  1.7675E-003  
  344.00  2.1363E-003  
  344.50  2.3706E-003  
  345.00  2.6134E-003  
  345.50  2.8286E-003  
  346.00  2.7131E-003  
  346.50  2.7563E-003  
  347.00  2.6121E-003  
  347.50  2.4403E-003  
  348.00  2.5037E-003  
  348.50  2.5326E-003  
  349.00  2.6787E-003  
  349.50  2.7049E-003  
  350.00  2.8168E-003  
  350.50  2.8413E-003  
  351.00  2.7893E-003  
  351.50  2.9465E-003  
  352.00  2.9182E-003  
  352.50  2.8327E-003  
  353.00  2.8124E-003  
  353.50  2.6427E-003  
  354.00  2.5646E-003  
  354.50  2.7112E-003  
  355.00  2.8296E-003  
  355.50  2.8792E-003  
  356.00  2.9154E-003  
  356.50  2.8659E-003  
  357.00  2.7973E-003  
  357.50  2.8920E-003  
  358.00  2.9414E-003  
  358.50  3.0047E-003  
  359.00  3.1225E-003  
  359.50  3.2355E-003  
  360.00  3.4324E-003  
  360.50  3.5167E-003  
  361.00  3.6721E-003  
  361.50  3.6331E-003  
  362.00  3.5692E-003  
  362.50  3.5270E-003  
  363.00  3.3929E-003  
  363.50  3.1823E-003  
  364.00  3.0617E-003  
  364.50  3.1160E-003  
  365.00  3.1546E-003  
  365.50  3.3561E-003  
  366.00  3.5327E-003  
  366.50  3.6743E-003  
  367.00  3.8640E-003  
  367.50  3.9291E-003  
  368.00  3.8941E-003  
  368.50  3.9128E-003  
  369.00  3.9521E-003  
  369.50  4.0209E-003  
  370.00  4.2269E-003  
  370.50  4.4315E-003  
  371.00  4.6132E-003  
  371.50  4.6493E-003  
  372.00  4.6063E-003  
  372.50  4.5104E-003  
  373.00  4.4771E-003  
  373.50  4.5967E-003  
  374.00  4.7429E-003  
  374.50  4.8073E-003  
  375.00  4.9888E-003  
  375.50  5.1530E-003  
  376.00  5.2501E-003  
  376.50  5.3849E-003  
  377.00  5.4653E-003  
  377.50  5.5699E-003  
  378.00  5.8499E-003  
  378.50  5.9987E-003  
  379.00  6.1053E-003  
  379.50  6.2022E-003  
  380.00  6.1661E-003  
  380.50  6.1747E-003  
  381.00  6.2521E-003  
  381.50  6.1789E-003  
  382.00  6.3143E-003  
  382.50  6.4473E-003  
  383.00  6.4759E-003  
  383.50  6.6700E-003  
  384.00  6.6117E-003  
  384.50  6.7342E-003  
  385.00  6.9167E-003  
  385.50  7.0791E-003  
  386.00  7.1255E-003  
  386.50  7.2126E-003  
  387.00  7.2969E-003  
  387.50  7.4767E-003  
  388.00  7.6884E-003  
  388.50  7.6833E-003  
  389.00  7.6991E-003  
  389.50  7.8616E-003  
  390.00  8.0886E-003  
  390.50  8.2308E-003  
  391.00  8.2063E-003  
  391.50  8.0646E-003  
  392.00  7.9715E-003  
  392.50  8.1559E-003  
  393.00  8.3860E-003  
  393.50  8.6414E-003  
  394.00  8.9874E-003  
  394.50  9.1629E-003  
  395.00  9.3659E-003  
  395.50  9.4963E-003  
  396.00  9.5319E-003  
  396.50  9.5769E-003  
  397.00  9.6680E-003  
  397.50  9.7347E-003  
  398.00  9.9366E-003  
  398.50  1.0135E-002  
  399.00  1.0202E-002  
  399.50  1.0197E-002  
  400.00  1.0306E-002  
  400.50  1.0259E-002  
  401.00  1.0425E-002  
  401.50  1.0653E-002  
  402.00  1.0950E-002  
  402.50  1.1261E-002  
  403.00  1.1445E-002  
  403.50  1.1566E-002  
  404.00  1.1344E-002  
  404.50  1.1309E-002  
  405.00  1.1371E-002  
  405.50  1.1612E-002  
  406.00  1.1816E-002  
  406.50  1.1778E-002  
  407.00  1.1540E-002  
  407.50  1.1619E-002  
  408.00  1.2038E-002  
  408.50  1.2526E-002  
  409.00  1.3023E-002  
  409.50  1.2959E-002  
  410.00  1.2843E-002  
  410.50  1.2978E-002  
  411.00  1.3118E-002  
  411.50  1.3518E-002  
  412.00  1.3786E-002  
  412.50  1.4009E-002  
  413.00  1.4157E-002  
  413.50  1.4303E-002  
  414.00  1.4513E-002  
  414.50  1.4734E-002  
  415.00  1.5032E-002  
  415.50  1.5186E-002  
  416.00  1.5293E-002  
  416.50  1.5342E-002  
  417.00  1.5432E-002  
  417.50  1.5577E-002  
  418.00  1.5743E-002  
  418.50  1.5953E-002  
  419.00  1.6313E-002  
  419.50  1.6462E-002  
  420.00  1.6554E-002  
  420.50  1.6694E-002  
  421.00  1.6660E-002  
  421.50  1.6801E-002  
  422.00  1.6896E-002  
  422.50  1.7030E-002  
  423.00  1.7379E-002  
  423.50  1.7633E-002  
  424.00  1.7845E-002  
  424.50  1.8068E-002  
  425.00  1.8242E-002  
  425.50  1.8419E-002  
  426.00  1.8465E-002  
  426.50  1.8497E-002  
  427.00  1.8541E-002  
  427.50  1.8902E-002  
  428.00  1.9384E-002  
  428.50  1.9873E-002  
  429.00  2.0286E-002  
  429.50  2.0371E-002  
  430.00  2.0382E-002  
  430.50  2.0481E-002  
  431.00  2.0425E-002  
  431.50  2.0678E-002  
  432.00  2.0867E-002  
  432.50  2.1076E-002  
  433.00  2.1390E-002  
  433.50  2.1579E-002  
  434.00  2.2044E-002  
  434.50  2.2528E-002  
  435.00  2.2989E-002  
  435.50  2.3153E-002  
  436.00  2.3323E-002  
  436.50  2.3316E-002  
  437.00  2.3320E-002  
  437.50  2.3536E-002  
  438.00  2.3805E-002  
  438.50  2.4262E-002  
  439.00  2.4624E-002  
  439.50  2.4882E-002  
  440.00  2.5090E-002  
  440.50  2.5250E-002  
  441.00  2.5269E-002  
  441.50  2.5489E-002  
  442.00  2.5900E-002  
  442.50  2.6227E-002  
  443.00  2.6500E-002  
  443.50  2.6674E-002  
  444.00  2.7096E-002  
  444.50  2.7530E-002  
  445.00  2.7749E-002  
  445.50  2.7903E-002  
  446.00  2.7863E-002  
  446.50  2.7866E-002  
  447.00  2.7882E-002  
  447.50  2.8113E-002  
  448.00  2.8616E-002  
  448.50  2.8944E-002  
  449.00  2.9269E-002  
  449.50  2.9622E-002  
  450.00  2.9810E-002  
  450.50  3.0133E-002  
  451.00  3.0196E-002  
  451.50  3.0385E-002  
  452.00  3.0719E-002  
  452.50  3.1055E-002  
  453.00  3.1580E-002  
  453.50  3.2133E-002  
  454.00  3.2615E-002  
  454.50  3.2870E-002  
  455.00  3.2980E-002  
  455.50  3.3305E-002  
  456.00  3.3831E-002  
  456.50  3.4189E-002  
  457.00  3.4415E-002  
  457.50  3.4574E-002  
  458.00  3.4779E-002  
  458.50  3.5098E-002  
  459.00  3.5332E-002  
  459.50  3.5636E-002  
  460.00  3.6196E-002  
  460.50  3.6508E-002  
  461.00  3.7010E-002  
  461.50  3.7394E-002  
  462.00  3.7834E-002  
  462.50  3.8314E-002  
  463.00  3.8681E-002  
  463.50  3.9070E-002  
  464.00  3.9542E-002  
  464.50  3.9922E-002  
  465.00  4.0263E-002  
  465.50  4.0350E-002  
  466.00  4.0436E-002  
  466.50  4.0783E-002  
  467.00  4.1279E-002  
  467.50  4.2059E-002  
  468.00  4.2781E-002  
  468.50  4.3362E-002  
  469.00  4.3797E-002  
  469.50  4.4039E-002  
  470.00  4.4496E-002  
  470.50  4.4841E-002  
  471.00  4.5166E-002  
  471.50  4.5380E-002  
  472.00  4.5816E-002  
  472.50  4.6183E-002  
  473.00  4.6753E-002  
  473.50  4.7241E-002  
  474.00  4.7750E-002  
  474.50  4.8255E-002  
  475.00  4.8335E-002  
  475.50  4.8243E-002  
  476.00  4.8135E-002  
  476.50  4.8568E-002  
  477.00  4.9340E-002  
  477.50  5.0094E-002  
  478.00  5.0542E-002  
  478.50  5.0649E-002  
  479.00  5.0831E-002  
  479.50  5.1188E-002  
  480.00  5.1875E-002  
  480.50  5.2407E-002  
  481.00  5.2563E-002  
  481.50  5.2761E-002  
  482.00  5.2926E-002  
  482.50  5.3261E-002  
  483.00  5.3736E-002  
  483.50  5.4087E-002  
  484.00  5.4441E-002  
  484.50  5.4743E-002  
  485.00  5.4934E-002  
  485.50  5.5286E-002  
  486.00  5.5508E-002  
  486.50  5.5907E-002  
  487.00  5.6037E-002  
  487.50  5.6091E-002  
  488.00  5.6131E-002  
  488.50  5.6214E-002  
  489.00  5.6392E-002  
  489.50  5.6625E-002  
  490.00  5.6743E-002  
  490.50  5.6897E-002  
  491.00  5.7285E-002  
  491.50  5.7625E-002  
  492.00  5.7922E-002  
  492.50  5.8100E-002  
  493.00  5.8164E-002  
  493.50  5.8415E-002  
  494.00  5.8630E-002  
  494.50  5.9015E-002  
  495.00  5.9489E-002  
  495.50  5.9896E-002  
  496.00  6.0333E-002  
  496.50  6.0474E-002  
  497.00  6.0866E-002  
  497.50  6.1061E-002  
  498.00  6.1407E-002  
  498.50  6.1611E-002  
  499.00  6.1874E-002  
  499.50  6.2255E-002  
  500.00  6.2556E-002  
  500.50  6.3020E-002  
  501.00  6.3480E-002  
  501.50  6.4007E-002  
  502.00  6.4603E-002  
  502.50  6.5172E-002  
  503.00  6.5805E-002  
  503.50  6.6171E-002  
  504.00  6.6451E-002  
  504.50  6.6615E-002  
  505.00  6.7060E-002  
  505.50  6.7490E-002  
  506.00  6.7889E-002  
  506.50  6.8254E-002  
  507.00  6.8502E-002  
  507.50  6.8918E-002  
  508.00  6.9389E-002  
  508.50  6.9870E-002  
  509.00  7.0347E-002  
  509.50  7.0743E-002  
  510.00  7.1233E-002  
  510.50  7.1683E-002  
  511.00  7.2201E-002  
  511.50  7.2622E-002  
  512.00  7.3248E-002  
  512.50  7.3840E-002  
  513.00  7.4326E-002  
  513.50  7.4698E-002  
  514.00  7.5140E-002  
  514.50  7.5635E-002  
  515.00  7.6220E-002  
  515.50  7.6842E-002  
  516.00  7.7236E-002  
  516.50  7.7672E-002  
  517.00  7.8094E-002  
  517.50  7.8632E-002  
  518.00  7.9270E-002  
  518.50  7.9911E-002  
  519.00  8.0481E-002  
  519.50  8.0971E-002  
  520.00  8.1455E-002  
  520.50  8.1922E-002  
  521.00  8.2678E-002  
  521.50  8.3385E-002  
  522.00  8.4012E-002  
  522.50  8.4364E-002  
  523.00  8.4832E-002  
  523.50  8.5423E-002  
  524.00  8.6013E-002  
  524.50  8.6617E-002  
  525.00  8.7260E-002  
  525.50  8.8102E-002  
  526.00  8.8848E-002  
  526.50  8.9639E-002  
  527.00  9.0380E-002  
  527.50  9.1142E-002  
  528.00  9.1863E-002  
  528.50  9.2494E-002  
  529.00  9.3007E-002  
  529.50  9.3491E-002  
  530.00  9.3823E-002  
  530.50  9.4345E-002  
  531.00  9.5027E-002  
  531.50  9.5825E-002  
  532.00  9.6738E-002  
  532.50  9.7437E-002  
  533.00  9.8027E-002  
  533.50  9.8522E-002  
  534.00  9.9155E-002  
  534.50  1.0009E-001  
  535.00  1.0116E-001  
  535.50  1.0216E-001  
  536.00  1.0280E-001  
  536.50  1.0348E-001  
  537.00  1.0413E-001  
  537.50  1.0502E-001  
  538.00  1.0568E-001  
  538.50  1.0615E-001  
  539.00  1.0671E-001  
  539.50  1.0736E-001  
  540.00  1.0820E-001  
  540.50  1.0905E-001  
  541.00  1.1004E-001  
  541.50  1.1111E-001  
  542.00  1.1183E-001  
  542.50  1.1255E-001  
  543.00  1.1343E-001  
  543.50  1.1447E-001  
  544.00  1.1531E-001  
  544.50  1.1588E-001  
  545.00  1.1651E-001  
  545.50  1.1737E-001  
  546.00  1.1837E-001  
  546.50  1.1905E-001  
  547.00  1.1976E-001  
  547.50  1.2034E-001  
  548.00  1.2120E-001  
  548.50  1.2212E-001  
  549.00  1.2312E-001  
  549.50  1.2398E-001  
  550.00  1.2470E-001  
  550.50  1.2545E-001  
  551.00  1.2646E-001  
  551.50  1.2744E-001  
  552.00  1.2807E-001  
  552.50  1.2859E-001  
  553.00  1.2922E-001  
  553.50  1.3036E-001  
  554.00  1.3151E-001  
  554.50  1.3243E-001  
  555.00  1.3316E-001  
  555.50  1.3359E-001  
  556.00  1.3422E-001  
  556.50  1.3508E-001  
  557.00  1.3624E-001  
  557.50  1.3747E-001  
  558.00  1.3841E-001  
  558.50  1.3923E-001  
  559.00  1.4002E-001  
  559.50  1.4073E-001  
  560.00  1.4174E-001  
  560.50  1.4260E-001  
  561.00  1.4378E-001  
  561.50  1.4503E-001  
  562.00  1.4574E-001  
  562.50  1.4676E-001  
  563.00  1.4731E-001  
  563.50  1.4820E-001  
  564.00  1.4886E-001  
  564.50  1.4951E-001  
  565.00  1.5062E-001  
  565.50  1.5190E-001  
  566.00  1.5296E-001  
  566.50  1.5357E-001  
  567.00  1.5385E-001  
  567.50  1.5449E-001  
  568.00  1.5530E-001  
  568.50  1.5621E-001  
  569.00  1.5707E-001  
  569.50  1.5773E-001  
  570.00  1.5830E-001  
  570.50  1.5888E-001  
  571.00  1.5984E-001  
  571.50  1.6100E-001  
  572.00  1.6208E-001  
  572.50  1.6305E-001  
  573.00  1.6415E-001  
  573.50  1.6514E-001  
  574.00  1.6610E-001  
  574.50  1.6698E-001  
  575.00  1.6798E-001  
  575.50  1.6905E-001  
  576.00  1.6965E-001  
  576.50  1.7035E-001  
  577.00  1.7083E-001  
  577.50  1.7160E-001  
  578.00  1.7257E-001  
  578.50  1.7360E-001  
  579.00  1.7445E-001  
  579.50  1.7530E-001  
  580.00  1.7621E-001  
  580.50  1.7703E-001  
  581.00  1.7798E-001  
  581.50  1.7864E-001  
  582.00  1.7956E-001  
  582.50  1.8008E-001  
  583.00  1.8062E-001  
  583.50  1.8110E-001  
  584.00  1.8211E-001  
  584.50  1.8320E-001  
  585.00  1.8442E-001  
  585.50  1.8531E-001  
  586.00  1.8610E-001  
  586.50  1.8635E-001  
  587.00  1.8682E-001  
  587.50  1.8789E-001  
  588.00  1.8898E-001  
  588.50  1.9010E-001  
  589.00  1.9064E-001  
  589.50  1.9126E-001  
  590.00  1.9182E-001  
  590.50  1.9245E-001  
  591.00  1.9326E-001  
  591.50  1.9455E-001  
  592.00  1.9566E-001  
  592.50  1.9653E-001  
  593.00  1.9724E-001  
  593.50  1.9780E-001  
  594.00  1.9882E-001  
  594.50  2.0029E-001  
  595.00  2.0163E-001  
  595.50  2.0279E-001  
  596.00  2.0329E-001  
  596.50  2.0362E-001  
  597.00  2.0374E-001  
  597.50  2.0417E-001  
  598.00  2.0468E-001  
  598.50  2.0536E-001  
  599.00  2.0635E-001  
  599.50  2.0776E-001  
  600.00  2.0918E-001  
  600.50  2.1004E-001  
  601.00  2.1079E-001  
  601.50  2.1123E-001  
  602.00  2.1186E-001  
  602.50  2.1202E-001  
  603.00  2.1229E-001  
  603.50  2.1281E-001  
  604.00  2.1342E-001  
  604.50  2.1405E-001  
  605.00  2.1503E-001  
  605.50  2.1620E-001  
  606.00  2.1734E-001  
  606.50  2.1848E-001  
  607.00  2.1907E-001  
  607.50  2.1987E-001  
  608.00  2.2041E-001  
  608.50  2.2114E-001  
  609.00  2.2205E-001  
  609.50  2.2293E-001  
  610.00  2.2376E-001  
  610.50  2.2446E-001  
  611.00  2.2507E-001  
  611.50  2.2590E-001  
  612.00  2.2683E-001  
  612.50  2.2786E-001  
  613.00  2.2847E-001  
  613.50  2.2915E-001  
  614.00  2.3006E-001  
  614.50  2.3111E-001  
  615.00  2.3148E-001  
  615.50  2.3185E-001  
  616.00  2.3204E-001  
  616.50  2.3303E-001  
  617.00  2.3373E-001  
  617.50  2.3431E-001  
  618.00  2.3457E-001  
  618.50  2.3485E-001  
  619.00  2.3587E-001  
  619.50  2.3738E-001  
  620.00  2.3853E-001  
  620.50  2.3908E-001  
  621.00  2.3959E-001  
  621.50  2.4019E-001  
  622.00  2.4075E-001  
  622.50  2.4084E-001  
  623.00  2.4122E-001  
  623.50  2.4208E-001  
  624.00  2.4315E-001  
  624.50  2.4379E-001  
  625.00  2.4416E-001  
  625.50  2.4438E-001  
  626.00  2.4501E-001  
  626.50  2.4564E-001  
  627.00  2.4664E-001  
  627.50  2.4721E-001  
  628.00  2.4821E-001  
  628.50  2.4885E-001  
  629.00  2.4944E-001  
  629.50  2.4954E-001  
  630.00  2.5005E-001  
  630.50  2.5075E-001  
  631.00  2.5213E-001  
  631.50  2.5333E-001  
  632.00  2.5407E-001  
  632.50  2.5453E-001  
  633.00  2.5499E-001  
  633.50  2.5610E-001  
  634.00  2.5725E-001  
  634.50  2.5836E-001  
  635.00  2.5855E-001  
  635.50  2.5877E-001  
  636.00  2.5891E-001  
  636.50  2.5982E-001  
  637.00  2.6070E-001  
  637.50  2.6125E-001  
  638.00  2.6153E-001  
  638.50  2.6214E-001  
  639.00  2.6312E-001  
  639.50  2.6466E-001  
  640.00  2.6545E-001  
  640.50  2.6569E-001  
  641.00  2.6573E-001  
  641.50  2.6643E-001  
  642.00  2.6780E-001  
  642.50  2.6894E-001  
  643.00  2.6973E-001  
  643.50  2.6996E-001  
  644.00  2.7021E-001  
  644.50  2.7049E-001  
  645.00  2.7144E-001  
  645.50  2.7243E-001  
  646.00  2.7367E-001  
  646.50  2.7455E-001  
  647.00  2.7561E-001  
  647.50  2.7635E-001  
  648.00  2.7647E-001  
  648.50  2.7680E-001  
  649.00  2.7743E-001  
  649.50  2.7808E-001  
  650.00  2.7820E-001  
  650.50  2.7855E-001  
  651.00  2.7911E-001  
  651.50  2.7995E-001  
  652.00  2.8126E-001  
  652.50  2.8229E-001  
  653.00  2.8298E-001  
  653.50  2.8260E-001  
  654.00  2.8272E-001  
  654.50  2.8311E-001  
  655.00  2.8416E-001  
  655.50  2.8536E-001  
  656.00  2.8653E-001  
  656.50  2.8729E-001  
  657.00  2.8764E-001  
  657.50  2.8798E-001  
  658.00  2.8820E-001  
  658.50  2.8874E-001  
  659.00  2.8957E-001  
  659.50  2.8992E-001  
  660.00  2.9082E-001  
  660.50  2.9132E-001  
  661.00  2.9259E-001  
  661.50  2.9284E-001  
  662.00  2.9304E-001  
  662.50  2.9318E-001  
  663.00  2.9365E-001  
  663.50  2.9445E-001  
  664.00  2.9535E-001  
  664.50  2.9590E-001  
  665.00  2.9663E-001  
  665.50  2.9645E-001  
  666.00  2.9627E-001  
  666.50  2.9576E-001  
  667.00  2.9654E-001  
  667.50  2.9744E-001  
  668.00  2.9812E-001  
  668.50  2.9839E-001  
  669.00  2.9879E-001  
  669.50  2.9913E-001  
  670.00  2.9962E-001  
  670.50  3.0043E-001  
  671.00  3.0129E-001  
  671.50  3.0183E-001  
  672.00  3.0217E-001  
  672.50  3.0260E-001  
  673.00  3.0346E-001  
  673.50  3.0336E-001  
  674.00  3.0297E-001  
  674.50  3.0222E-001  
  675.00  3.0294E-001  
  675.50  3.0448E-001  
  676.00  3.0594E-001  
  676.50  3.0610E-001  
  677.00  3.0554E-001  
  677.50  3.0506E-001  
  678.00  3.0517E-001  
  678.50  3.0514E-001  
  679.00  3.0519E-001  
  679.50  3.0573E-001  
  680.00  3.0688E-001  
  680.50  3.0760E-001  
  681.00  3.0783E-001  
  681.50  3.0776E-001  
  682.00  3.0874E-001  
  682.50  3.1005E-001  
  683.00  3.1110E-001  
  683.50  3.1077E-001  
  684.00  3.1046E-001  
  684.50  3.1045E-001  
  685.00  3.1059E-001  
  685.50  3.1111E-001  
  686.00  3.1114E-001  
  686.50  3.1142E-001  
  687.00  3.1154E-001  
  687.50  3.1257E-001  
  688.00  3.1346E-001  
  688.50  3.1362E-001  
  689.00  3.1291E-001  
  689.50  3.1336E-001  
  690.00  3.1491E-001  
  690.50  3.1680E-001  
  691.00  3.1700E-001  
  691.50  3.1586E-001  
  692.00  3.1589E-001  
  692.50  3.1670E-001  
  693.00  3.1720E-001  
  693.50  3.1726E-001  
  694.00  3.1734E-001  
  694.50  3.1825E-001  
  695.00  3.1867E-001  
  695.50  3.1889E-001  
  696.00  3.1948E-001  
  696.50  3.1975E-001  
  697.00  3.1973E-001  
  697.50  3.2000E-001  
  698.00  3.2029E-001  
  698.50  3.2088E-001  
  699.00  3.2122E-001  
  699.50  3.2193E-001  
  700.00  3.2215E-001  
  700.50  3.2203E-001  
  701.00  3.2286E-001  
  701.50  3.2364E-001  
  702.00  3.2398E-001  
  702.50  3.2431E-001  
  703.00  3.2438E-001  
  703.50  3.2504E-001  
  704.00  3.2523E-001  
  704.50  3.2595E-001  
  705.00  3.2671E-001  
  705.50  3.2758E-001  
  706.00  3.2815E-001  
  706.50  3.2844E-001  
  707.00  3.2830E-001  
  707.50  3.2852E-001  
  708.00  3.2863E-001  
  708.50  3.2955E-001  
  709.00  3.3083E-001  
  709.50  3.3128E-001  
  710.00  3.3149E-001  
  710.50  3.3195E-001  
  711.00  3.3321E-001  
  711.50  3.3332E-001  
  712.00  3.3308E-001  
  712.50  3.3300E-001  
  713.00  3.3328E-001  
  713.50  3.3330E-001  
  714.00  3.3419E-001  
  714.50  3.3420E-001  
  715.00  3.3427E-001  
  715.50  3.3373E-001  
  716.00  3.3447E-001  
  716.50  3.3482E-001  
  717.00  3.3478E-001  
  717.50  3.3470E-001  
  718.00  3.3498E-001  
  718.50  3.3585E-001  
  719.00  3.3697E-001  
  719.50  3.3751E-001  
  720.00  3.3798E-001  
  720.50  3.3835E-001  
  721.00  3.3914E-001  
  721.50  3.3925E-001  
  722.00  3.3955E-001  
  722.50  3.3986E-001  
  723.00  3.3995E-001  
  723.50  3.3976E-001  
  724.00  3.3971E-001  
  724.50  3.3968E-001  
  725.00  3.3995E-001  
  725.50  3.4038E-001  
  726.00  3.4068E-001  
  726.50  3.4148E-001  
  727.00  3.4208E-001  
  727.50  3.4308E-001  
  728.00  3.4309E-001  
  728.50  3.4365E-001  
  729.00  3.4467E-001  
  729.50  3.4551E-001  
  730.00  3.4597E-001  
  730.50  3.4683E-001  
  731.00  3.4679E-001  
  731.50  3.4650E-001  
  732.00  3.4564E-001  
  732.50  3.4612E-001  
  733.00  3.4715E-001  
  733.50  3.4846E-001  
  734.00  3.4941E-001  
  734.50  3.5021E-001  
  735.00  3.5145E-001  
  735.50  3.5183E-001  
  736.00  3.5153E-001  
  736.50  3.5209E-001  
  737.00  3.5206E-001  
  737.50  3.5109E-001  
  738.00  3.5000E-001  
  738.50  3.5097E-001  
  739.00  3.5253E-001  
  739.50  3.5402E-001  
  740.00  3.5427E-001  
  740.50  3.5406E-001  
  741.00  3.5303E-001  
  741.50  3.5318E-001  
  742.00  3.5371E-001  
  742.50  3.5531E-001  
  743.00  3.5588E-001  
  743.50  3.5580E-001  
  744.00  3.5606E-001  
  744.50  3.5695E-001  
  745.00  3.5803E-001  
  745.50  3.5828E-001  
  746.00  3.5746E-001  
  746.50  3.5761E-001  
  747.00  3.5810E-001  
  747.50  3.5945E-001  
  748.00  3.5867E-001  
  748.50  3.5840E-001  
  749.00  3.5894E-001  
  749.50  3.6038E-001  
  750.00  3.6157E-001  
  750.50  3.6203E-001  
  751.00  3.6273E-001  
  751.50  3.6314E-001  
  752.00  3.6381E-001  
  752.50  3.6423E-001  
  753.00  3.6377E-001  
  753.50  3.6205E-001  
  754.00  3.6202E-001  
  754.50  3.6310E-001  
  755.00  3.6477E-001  
  755.50  3.6435E-001  
  756.00  3.6474E-001  
  756.50  3.6528E-001  
  757.00  3.6671E-001  
  757.50  3.6728E-001  
  758.00  3.6817E-001  
  758.50  3.6832E-001  
  759.00  3.6757E-001  
  759.50  3.6648E-001  
  760.00  3.6631E-001  
  760.50  3.6665E-001  
  761.00  3.6692E-001  
  761.50  3.6764E-001  
  762.00  3.6925E-001  
  762.50  3.7016E-001  
  763.00  3.7049E-001  
  763.50  3.7017E-001  
  764.00  3.7144E-001  
  764.50  3.7189E-001  
  765.00  3.7250E-001  
  765.50  3.7267E-001  
  766.00  3.7307E-001  
  766.50  3.7398E-001  
  767.00  3.7501E-001  
  767.50  3.7598E-001  
  768.00  3.7670E-001  
  768.50  3.7664E-001  
  769.00  3.7675E-001  
  769.50  3.7612E-001  
  770.00  3.7543E-001  
  770.50  3.7608E-001  
  771.00  3.7611E-001  
  771.50  3.7595E-001  
  772.00  3.7596E-001  
  772.50  3.7728E-001  
  773.00  3.7756E-001  
  773.50  3.7880E-001  
  774.00  3.8056E-001  
  774.50  3.8198E-001  
  775.00  3.8106E-001  
  775.50  3.7950E-001  
  776.00  3.7893E-001  
  776.50  3.7956E-001  
  777.00  3.8079E-001  
  777.50  3.8183E-001  
  778.00  3.8162E-001  
  778.50  3.8068E-001  
  779.00  3.8010E-001  
  779.50  3.7989E-001  
  780.00  3.8130E-001  
  780.50  3.8278E-001  
  781.00  3.8366E-001  
  781.50  3.8371E-001  
  782.00  3.8427E-001  
  782.50  3.8529E-001  
  783.00  3.8703E-001  
  783.50  3.8859E-001  
  784.00  3.8833E-001  
  784.50  3.8619E-001  
  785.00  3.8392E-001  
  785.50  3.8464E-001  
  786.00  3.8675E-001  
  786.50  3.8850E-001  
  787.00  3.8933E-001  
  787.50  3.8925E-001  
  788.00  3.8877E-001  
  788.50  3.8855E-001  
  789.00  3.8932E-001  
  789.50  3.8990E-001  
  790.00  3.8991E-001  
  790.50  3.9067E-001  
  791.00  3.9095E-001  
  791.50  3.9150E-001  
  792.00  3.9132E-001  
  792.50  3.9367E-001  
  793.00  3.9584E-001  
  793.50  3.9619E-001  
  794.00  3.9486E-001  
  794.50  3.9495E-001  
  795.00  3.9709E-001  
  795.50  3.9818E-001  
  796.00  3.9851E-001  
  796.50  3.9740E-001  
  797.00  3.9669E-001  
  797.50  3.9711E-001  
  798.00  3.9741E-001  
  798.50  3.9872E-001  
  799.00  3.9933E-001  
  799.50  3.9942E-001  
  800.00  3.9760E-001  
  800.50  3.9816E-001  
  801.00  4.0021E-001  
  801.50  4.0127E-001  
  802.00  3.9975E-001  
  802.50  3.9906E-001  
  803.00  4.0036E-001  
  803.50  4.0305E-001  
  804.00  4.0345E-001  
  804.50  4.0411E-001  
  805.00  4.0355E-001  
  805.50  4.0379E-001  
  806.00  4.0441E-001  
  806.50  4.0495E-001  
  807.00  4.0405E-001  
  807.50  4.0438E-001  
  808.00  4.0541E-001  
  808.50  4.0558E-001  
  809.00  4.0589E-001  
  809.50  4.0792E-001  
  810.00  4.0966E-001  
  810.50  4.0911E-001  
  811.00  4.0789E-001  
  811.50  4.0671E-001  
  812.00  4.0836E-001  
  812.50  4.1016E-001  
  813.00  4.0991E-001  
  813.50  4.0781E-001  
  814.00  4.0787E-001  
  814.50  4.0951E-001  
  815.00  4.1110E-001  
  815.50  4.1175E-001  
  816.00  4.1340E-001  
  816.50  4.1296E-001  
  817.00  4.1263E-001  
  817.50  4.1305E-001  
  818.00  4.1623E-001  
  818.50  4.1610E-001  
  819.00  4.1521E-001  
  819.50  4.1525E-001  
  820.00  4.1555E-001  
  820.50  4.1542E-001  
  821.00  4.1532E-001  
  821.50  4.1473E-001  
  822.00  4.1559E-001  
  822.50  4.1636E-001  
  823.00  4.1752E-001  
  823.50  4.1788E-001  
  824.00  4.1754E-001  
  824.50  4.1615E-001  
  825.00  4.1649E-001  
  825.50  4.1855E-001  
  826.00  4.2255E-001  
  826.50  4.2392E-001  
  827.00  4.2330E-001  
  827.50  4.2124E-001  
  828.00  4.2277E-001  
  828.50  4.2430E-001  
  829.00  4.2369E-001  
  829.50  4.2328E-001  
  830.00  4.2484E-001  
  830.50  4.2520E-001  
  831.00  4.2453E-001  
  831.50  4.2587E-001  
  832.00  4.2832E-001  
  832.50  4.2928E-001  
  833.00  4.2768E-001  
  833.50  4.2712E-001  
  834.00  4.2681E-001  
  834.50  4.2789E-001  
  835.00  4.2790E-001  
  835.50  4.2872E-001  
  836.00  4.2997E-001  
  836.50  4.3141E-001  
  837.00  4.3188E-001  
  837.50  4.3245E-001  
  838.00  4.2995E-001  
  838.50  4.2762E-001  
  839.00  4.2852E-001  
  839.50  4.3305E-001  
  840.00  4.3506E-001  
  840.50  4.3282E-001  
  841.00  4.3083E-001  
  841.50  4.2934E-001  
  842.00  4.3094E-001  
  842.50  4.3172E-001  
  843.00  4.3203E-001  
  843.50  4.3366E-001  
  844.00  4.3387E-001  
  844.50  4.3182E-001  
  845.00  4.3369E-001  
  845.50  4.3694E-001  
  846.00  4.3857E-001  
  846.50  4.3711E-001  
  847.00  4.3623E-001  
  847.50  4.3525E-001  
  848.00  4.3467E-001  
  848.50  4.3605E-001  
  849.00  4.3686E-001  
  849.50  4.3610E-001  
  850.00  4.3755E-001  
  850.50  4.3979E-001  
  851.00  4.4050E-001  
  851.50  4.3870E-001  
  852.00  4.3901E-001  
  852.50  4.4081E-001  
  853.00  4.4016E-001  
  853.50  4.3922E-001  
  854.00  4.3700E-001  
  854.50  4.3731E-001  
  855.00  4.3883E-001  
  855.50  4.4271E-001  
  856.00  4.4408E-001  
  856.50  4.4431E-001  
  857.00  4.4281E-001  
  857.50  4.4048E-001  
  858.00  4.3954E-001  
  858.50  4.4192E-001  
  859.00  4.4534E-001  
  859.50  4.4488E-001  
  860.00  4.4562E-001  
  860.50  4.4569E-001  
  861.00  4.4560E-001  
  861.50  4.4664E-001  
  862.00  4.4996E-001  
  862.50  4.5203E-001  
  863.00  4.5051E-001  
  863.50  4.4666E-001  
  864.00  4.4494E-001  
  864.50  4.4352E-001  
  865.00  4.4332E-001  
  865.50  4.4645E-001  
  866.00  4.4832E-001  
  866.50  4.4708E-001  
  867.00  4.4791E-001  
  867.50  4.5149E-001  
  868.00  4.5024E-001  
  868.50  4.5162E-001  
  869.00  4.5170E-001  
  869.50  4.5096E-001  
  870.00  4.5016E-001  
  870.50  4.4912E-001  
  871.00  4.4918E-001  
  871.50  4.5487E-001  
  872.00  4.5261E-001  
  872.50  4.4754E-001  
  873.00  4.4800E-001  
  873.50  4.5325E-001  
  874.00  4.5709E-001  
  874.50  4.5698E-001  
  875.00  4.5310E-001  
  875.50  4.4855E-001  
  876.00  4.4892E-001  
  876.50  4.5454E-001  
  877.00  4.5627E-001  
  877.50  4.5810E-001  
  878.00  4.5669E-001  
  878.50  4.5366E-001  
  879.00  4.5283E-001  
  879.50  4.5417E-001  
  880.00  4.5329E-001  
  880.50  4.5405E-001  
  881.00  4.5781E-001  
  881.50  4.5925E-001  
  882.00  4.5489E-001  
  882.50  4.5230E-001  
  883.00  4.5616E-001  
  883.50  4.6089E-001  
  884.00  4.6368E-001  
  884.50  4.6501E-001  
  885.00  4.6176E-001  
  885.50  4.5452E-001  
  886.00  4.4960E-001  
  886.50  4.4689E-001  
  887.00  4.5059E-001  
  887.50  4.5573E-001  
  888.00  4.5896E-001  
  888.50  4.6121E-001  
  889.00  4.6381E-001  
  889.50  4.6488E-001  
  890.00  4.6018E-001  
  890.50  4.5700E-001  
  891.00  4.5938E-001  
  891.50  4.5947E-001  
  892.00  4.6083E-001  
  892.50  4.6150E-001  
  893.00  4.6094E-001  
  893.50  4.5730E-001  
  894.00  4.5394E-001  
  894.50  4.5643E-001  
  895.00  4.6013E-001  
  895.50  4.6353E-001  
  896.00  4.6559E-001  
  896.50  4.6623E-001  
  897.00  4.6540E-001  
  897.50  4.6721E-001  
  898.00  4.6687E-001  
  898.50  4.6918E-001  
  899.00  4.6961E-001  
  899.50  9.2584E-003  
