
# From lspdd.org
# 
# Name: INC Standard domestic-use -
# Indice spectral Valeur 
# MSI 0.30 
# SLI 0.50 
# IPI 0.98 
# Pourcentage de bleu 12.5 
# Caractéristique Valeur 
# CCT calculée (K) 2548 
# CCT du fabricant (K) 2700 
# Tension (V) 120 
# Puissance (W) 100.0 
# Efficacité lumineuse (Lum/W) ND 
#
# Image: '/app/system/img_1s/2767/medium_image1.jpg?1622001363'
# 

  273.00  0.0000E+000  
  273.50  0.0000E+000  
  274.00  0.0000E+000  
  274.50  0.0000E+000  
  275.00  0.0000E+000  
  275.50  0.0000E+000  
  276.00  0.0000E+000  
  276.50  0.0000E+000  
  277.00  0.0000E+000  
  277.50  0.0000E+000  
  278.00  0.0000E+000  
  278.50  0.0000E+000  
  279.00  0.0000E+000  
  279.50  0.0000E+000  
  280.00  0.0000E+000  
  280.50  0.0000E+000  
  281.00  0.0000E+000  
  281.50  0.0000E+000  
  282.00  0.0000E+000  
  282.50  0.0000E+000  
  283.00  0.0000E+000  
  283.50  0.0000E+000  
  284.00  0.0000E+000  
  284.50  0.0000E+000  
  285.00  0.0000E+000  
  285.50  0.0000E+000  
  286.00  0.0000E+000  
  286.50  0.0000E+000  
  287.00  0.0000E+000  
  287.50  0.0000E+000  
  288.00  0.0000E+000  
  288.50  0.0000E+000  
  289.00  0.0000E+000  
  289.50  0.0000E+000  
  290.00  0.0000E+000  
  290.50  0.0000E+000  
  291.00  0.0000E+000  
  291.50  0.0000E+000  
  292.00  0.0000E+000  
  292.50  0.0000E+000  
  293.00  0.0000E+000  
  293.50  0.0000E+000  
  294.00  0.0000E+000  
  294.50  0.0000E+000  
  295.00  0.0000E+000  
  295.50  0.0000E+000  
  296.00  0.0000E+000  
  296.50  0.0000E+000  
  297.00  0.0000E+000  
  297.50  0.0000E+000  
  298.00  0.0000E+000  
  298.50  0.0000E+000  
  299.00  0.0000E+000  
  299.50  0.0000E+000  
  300.00  1.4652E-004  
  300.50  4.5420E-004  
  301.00  5.1684E-004  
  301.50  4.3536E-004  
  302.00  4.0508E-004  
  302.50  4.1490E-004  
  303.00  5.7798E-004  
  303.50  6.4630E-004  
  304.00  6.3063E-004  
  304.50  6.2926E-004  
  305.00  5.0469E-004  
  305.50  6.7218E-004  
  306.00  8.0674E-004  
  306.50  7.5486E-004  
  307.00  8.6448E-004  
  307.50  8.1908E-004  
  308.00  7.3169E-004  
  308.50  5.8636E-004  
  309.00  4.1311E-004  
  309.50  2.9676E-004  
  310.00  3.9740E-004  
  310.50  4.9378E-004  
  311.00  5.9317E-004  
  311.50  6.0464E-004  
  312.00  6.3410E-004  
  312.50  6.4815E-004  
  313.00  5.2417E-004  
  313.50  3.7957E-004  
  314.00  1.9808E-004  
  314.50  7.8035E-005  
  315.00  1.6108E-004  
  315.50  2.1279E-004  
  316.00  3.4086E-004  
  316.50  4.2616E-004  
  317.00  3.6024E-004  
  317.50  3.8432E-004  
  318.00  5.3239E-004  
  318.50  5.6988E-004  
  319.00  5.2638E-004  
  319.50  5.6222E-004  
  320.00  3.5778E-004  
  320.50  4.2197E-004  
  321.00  6.0911E-004  
  321.50  6.5335E-004  
  322.00  6.2226E-004  
  322.50  5.9611E-004  
  323.00  6.4573E-004  
  323.50  8.7273E-004  
  324.00  1.2201E-003  
  324.50  1.4736E-003  
  325.00  1.6530E-003  
  325.50  1.4140E-003  
  326.00  1.1968E-003  
  326.50  1.0333E-003  
  327.00  1.1217E-003  
  327.50  1.4851E-003  
  328.00  1.7745E-003  
  328.50  1.9733E-003  
  329.00  2.0741E-003  
  329.50  1.9463E-003  
  330.00  2.0037E-003  
  330.50  2.1901E-003  
  331.00  2.1810E-003  
  331.50  2.3601E-003  
  332.00  2.4456E-003  
  332.50  2.4970E-003  
  333.00  2.5381E-003  
  333.50  2.4873E-003  
  334.00  2.2898E-003  
  334.50  2.0068E-003  
  335.00  2.0017E-003  
  335.50  1.8915E-003  
  336.00  1.9430E-003  
  336.50  2.1757E-003  
  337.00  2.3441E-003  
  337.50  2.5478E-003  
  338.00  2.3619E-003  
  338.50  2.1957E-003  
  339.00  2.1449E-003  
  339.50  2.1570E-003  
  340.00  2.6978E-003  
  340.50  3.0581E-003  
  341.00  3.0861E-003  
  341.50  2.9835E-003  
  342.00  2.6081E-003  
  342.50  2.4944E-003  
  343.00  2.8152E-003  
  343.50  3.1906E-003  
  344.00  3.6539E-003  
  344.50  3.8953E-003  
  345.00  4.0024E-003  
  345.50  4.1736E-003  
  346.00  4.1974E-003  
  346.50  4.2842E-003  
  347.00  4.1866E-003  
  347.50  3.9539E-003  
  348.00  3.8802E-003  
  348.50  3.7830E-003  
  349.00  3.7812E-003  
  349.50  3.7427E-003  
  350.00  3.7815E-003  
  350.50  3.8718E-003  
  351.00  3.8847E-003  
  351.50  4.0944E-003  
  352.00  4.1464E-003  
  352.50  4.2633E-003  
  353.00  4.4854E-003  
  353.50  4.6994E-003  
  354.00  4.8339E-003  
  354.50  4.7969E-003  
  355.00  4.5188E-003  
  355.50  4.1668E-003  
  356.00  4.1362E-003  
  356.50  4.4178E-003  
  357.00  4.7628E-003  
  357.50  5.0071E-003  
  358.00  4.9487E-003  
  358.50  4.9315E-003  
  359.00  5.1981E-003  
  359.50  5.6715E-003  
  360.00  6.2028E-003  
  360.50  6.4073E-003  
  361.00  6.5814E-003  
  361.50  6.4070E-003  
  362.00  6.3448E-003  
  362.50  6.4367E-003  
  363.00  6.3943E-003  
  363.50  6.4423E-003  
  364.00  6.4557E-003  
  364.50  6.3667E-003  
  365.00  6.2061E-003  
  365.50  6.0732E-003  
  366.00  6.0330E-003  
  366.50  6.0865E-003  
  367.00  6.3865E-003  
  367.50  6.7584E-003  
  368.00  7.0573E-003  
  368.50  7.4112E-003  
  369.00  7.3999E-003  
  369.50  7.5350E-003  
  370.00  7.7377E-003  
  370.50  8.0841E-003  
  371.00  8.4524E-003  
  371.50  8.2953E-003  
  372.00  8.0937E-003  
  372.50  7.8482E-003  
  373.00  7.8056E-003  
  373.50  8.0408E-003  
  374.00  8.3000E-003  
  374.50  8.5202E-003  
  375.00  8.8704E-003  
  375.50  9.1962E-003  
  376.00  9.3272E-003  
  376.50  9.4964E-003  
  377.00  9.6825E-003  
  377.50  9.9149E-003  
  378.00  1.0268E-002  
  378.50  1.0418E-002  
  379.00  1.0371E-002  
  379.50  1.0474E-002  
  380.00  1.0456E-002  
  380.50  1.0583E-002  
  381.00  1.0536E-002  
  381.50  1.0433E-002  
  382.00  1.0614E-002  
  382.50  1.0869E-002  
  383.00  1.1321E-002  
  383.50  1.1777E-002  
  384.00  1.1767E-002  
  384.50  1.1800E-002  
  385.00  1.1914E-002  
  385.50  1.2134E-002  
  386.00  1.2441E-002  
  386.50  1.2677E-002  
  387.00  1.2646E-002  
  387.50  1.2702E-002  
  388.00  1.2857E-002  
  388.50  1.3119E-002  
  389.00  1.3416E-002  
  389.50  1.3775E-002  
  390.00  1.4101E-002  
  390.50  1.4339E-002  
  391.00  1.4459E-002  
  391.50  1.4509E-002  
  392.00  1.4473E-002  
  392.50  1.4819E-002  
  393.00  1.5138E-002  
  393.50  1.5360E-002  
  394.00  1.5540E-002  
  394.50  1.5509E-002  
  395.00  1.5551E-002  
  395.50  1.5761E-002  
  396.00  1.5933E-002  
  396.50  1.6136E-002  
  397.00  1.6326E-002  
  397.50  1.6459E-002  
  398.00  1.6761E-002  
  398.50  1.7276E-002  
  399.00  1.7560E-002  
  399.50  1.7762E-002  
  400.00  1.7743E-002  
  400.50  1.7671E-002  
  401.00  1.7973E-002  
  401.50  1.8320E-002  
  402.00  1.8704E-002  
  402.50  1.8978E-002  
  403.00  1.9054E-002  
  403.50  1.9058E-002  
  404.00  1.9021E-002  
  404.50  1.9162E-002  
  405.00  1.9446E-002  
  405.50  1.9985E-002  
  406.00  2.0449E-002  
  406.50  2.0641E-002  
  407.00  2.0724E-002  
  407.50  2.0968E-002  
  408.00  2.1331E-002  
  408.50  2.1893E-002  
  409.00  2.2381E-002  
  409.50  2.2337E-002  
  410.00  2.2425E-002  
  410.50  2.2304E-002  
  411.00  2.2232E-002  
  411.50  2.2650E-002  
  412.00  2.2978E-002  
  412.50  2.3569E-002  
  413.00  2.4099E-002  
  413.50  2.4447E-002  
  414.00  2.4704E-002  
  414.50  2.4975E-002  
  415.00  2.5252E-002  
  415.50  2.5477E-002  
  416.00  2.5613E-002  
  416.50  2.5634E-002  
  417.00  2.5803E-002  
  417.50  2.5930E-002  
  418.00  2.6320E-002  
  418.50  2.6524E-002  
  419.00  2.6855E-002  
  419.50  2.7235E-002  
  420.00  2.7541E-002  
  420.50  2.7753E-002  
  421.00  2.7859E-002  
  421.50  2.8125E-002  
  422.00  2.8420E-002  
  422.50  2.8872E-002  
  423.00  2.9260E-002  
  423.50  2.9600E-002  
  424.00  3.0057E-002  
  424.50  3.0547E-002  
  425.00  3.0701E-002  
  425.50  3.0855E-002  
  426.00  3.0984E-002  
  426.50  3.1150E-002  
  427.00  3.1234E-002  
  427.50  3.1551E-002  
  428.00  3.1980E-002  
  428.50  3.2857E-002  
  429.00  3.3482E-002  
  429.50  3.3759E-002  
  430.00  3.3831E-002  
  430.50  3.3997E-002  
  431.00  3.4063E-002  
  431.50  3.4450E-002  
  432.00  3.4895E-002  
  432.50  3.5271E-002  
  433.00  3.5711E-002  
  433.50  3.5916E-002  
  434.00  3.6415E-002  
  434.50  3.6840E-002  
  435.00  3.7268E-002  
  435.50  3.7692E-002  
  436.00  3.8321E-002  
  436.50  3.8629E-002  
  437.00  3.8780E-002  
  437.50  3.8686E-002  
  438.00  3.8745E-002  
  438.50  3.9274E-002  
  439.00  3.9634E-002  
  439.50  4.0076E-002  
  440.00  4.0662E-002  
  440.50  4.1302E-002  
  441.00  4.1774E-002  
  441.50  4.2062E-002  
  442.00  4.2219E-002  
  442.50  4.2621E-002  
  443.00  4.2938E-002  
  443.50  4.3091E-002  
  444.00  4.3022E-002  
  444.50  4.2952E-002  
  445.00  4.3189E-002  
  445.50  4.3804E-002  
  446.00  4.4335E-002  
  446.50  4.4899E-002  
  447.00  4.5439E-002  
  447.50  4.6082E-002  
  448.00  4.6765E-002  
  448.50  4.7133E-002  
  449.00  4.7451E-002  
  449.50  4.7731E-002  
  450.00  4.7871E-002  
  450.50  4.8187E-002  
  451.00  4.8439E-002  
  451.50  4.8881E-002  
  452.00  4.9493E-002  
  452.50  5.0022E-002  
  453.00  5.0810E-002  
  453.50  5.1157E-002  
  454.00  5.1381E-002  
  454.50  5.1352E-002  
  455.00  5.1696E-002  
  455.50  5.2243E-002  
  456.00  5.3064E-002  
  456.50  5.4058E-002  
  457.00  5.5198E-002  
  457.50  5.5937E-002  
  458.00  5.6095E-002  
  458.50  5.5959E-002  
  459.00  5.5932E-002  
  459.50  5.6280E-002  
  460.00  5.6955E-002  
  460.50  5.7505E-002  
  461.00  5.8221E-002  
  461.50  5.8986E-002  
  462.00  5.9476E-002  
  462.50  6.0084E-002  
  463.00  6.0746E-002  
  463.50  6.1319E-002  
  464.00  6.2003E-002  
  464.50  6.2728E-002  
  465.00  6.3030E-002  
  465.50  6.2952E-002  
  466.00  6.2916E-002  
  466.50  6.3200E-002  
  467.00  6.4255E-002  
  467.50  6.5597E-002  
  468.00  6.6648E-002  
  468.50  6.7625E-002  
  469.00  6.8479E-002  
  469.50  6.9027E-002  
  470.00  6.9764E-002  
  470.50  7.0423E-002  
  471.00  7.0842E-002  
  471.50  7.1117E-002  
  472.00  7.1202E-002  
  472.50  7.1256E-002  
  473.00  7.1702E-002  
  473.50  7.2467E-002  
  474.00  7.3374E-002  
  474.50  7.4334E-002  
  475.00  7.4739E-002  
  475.50  7.4629E-002  
  476.00  7.4701E-002  
  476.50  7.5185E-002  
  477.00  7.6224E-002  
  477.50  7.6977E-002  
  478.00  7.7375E-002  
  478.50  7.7389E-002  
  479.00  7.7766E-002  
  479.50  7.8474E-002  
  480.00  7.9474E-002  
  480.50  8.0175E-002  
  481.00  8.0160E-002  
  481.50  8.0386E-002  
  482.00  8.0708E-002  
  482.50  8.1455E-002  
  483.00  8.2043E-002  
  483.50  8.2296E-002  
  484.00  8.2727E-002  
  484.50  8.2947E-002  
  485.00  8.3336E-002  
  485.50  8.3405E-002  
  486.00  8.3572E-002  
  486.50  8.3952E-002  
  487.00  8.4429E-002  
  487.50  8.4714E-002  
  488.00  8.4887E-002  
  488.50  8.5203E-002  
  489.00  8.5622E-002  
  489.50  8.6257E-002  
  490.00  8.6477E-002  
  490.50  8.6506E-002  
  491.00  8.6833E-002  
  491.50  8.7194E-002  
  492.00  8.7833E-002  
  492.50  8.8271E-002  
  493.00  8.8235E-002  
  493.50  8.8216E-002  
  494.00  8.7997E-002  
  494.50  8.8218E-002  
  495.00  8.8682E-002  
  495.50  8.9272E-002  
  496.00  8.9708E-002  
  496.50  8.9884E-002  
  497.00  9.0176E-002  
  497.50  9.0662E-002  
  498.00  9.1314E-002  
  498.50  9.1985E-002  
  499.00  9.2539E-002  
  499.50  9.3015E-002  
  500.00  9.3471E-002  
  500.50  9.3959E-002  
  501.00  9.4443E-002  
  501.50  9.5059E-002  
  502.00  9.5604E-002  
  502.50  9.6288E-002  
  503.00  9.6978E-002  
  503.50  9.7452E-002  
  504.00  9.8061E-002  
  504.50  9.8626E-002  
  505.00  9.9435E-002  
  505.50  1.0008E-001  
  506.00  1.0030E-001  
  506.50  1.0057E-001  
  507.00  1.0096E-001  
  507.50  1.0166E-001  
  508.00  1.0238E-001  
  508.50  1.0288E-001  
  509.00  1.0332E-001  
  509.50  1.0380E-001  
  510.00  1.0464E-001  
  510.50  1.0533E-001  
  511.00  1.0599E-001  
  511.50  1.0642E-001  
  512.00  1.0692E-001  
  512.50  1.0762E-001  
  513.00  1.0835E-001  
  513.50  1.0886E-001  
  514.00  1.0939E-001  
  514.50  1.0997E-001  
  515.00  1.1083E-001  
  515.50  1.1182E-001  
  516.00  1.1248E-001  
  516.50  1.1300E-001  
  517.00  1.1341E-001  
  517.50  1.1395E-001  
  518.00  1.1481E-001  
  518.50  1.1561E-001  
  519.00  1.1642E-001  
  519.50  1.1704E-001  
  520.00  1.1771E-001  
  520.50  1.1851E-001  
  521.00  1.1945E-001  
  521.50  1.2037E-001  
  522.00  1.2099E-001  
  522.50  1.2155E-001  
  523.00  1.2210E-001  
  523.50  1.2286E-001  
  524.00  1.2353E-001  
  524.50  1.2429E-001  
  525.00  1.2515E-001  
  525.50  1.2610E-001  
  526.00  1.2706E-001  
  526.50  1.2795E-001  
  527.00  1.2876E-001  
  527.50  1.2969E-001  
  528.00  1.3050E-001  
  528.50  1.3130E-001  
  529.00  1.3186E-001  
  529.50  1.3261E-001  
  530.00  1.3342E-001  
  530.50  1.3451E-001  
  531.00  1.3553E-001  
  531.50  1.3650E-001  
  532.00  1.3744E-001  
  532.50  1.3833E-001  
  533.00  1.3918E-001  
  533.50  1.3984E-001  
  534.00  1.4052E-001  
  534.50  1.4149E-001  
  535.00  1.4248E-001  
  535.50  1.4361E-001  
  536.00  1.4431E-001  
  536.50  1.4526E-001  
  537.00  1.4625E-001  
  537.50  1.4752E-001  
  538.00  1.4856E-001  
  538.50  1.4958E-001  
  539.00  1.5066E-001  
  539.50  1.5159E-001  
  540.00  1.5263E-001  
  540.50  1.5349E-001  
  541.00  1.5465E-001  
  541.50  1.5543E-001  
  542.00  1.5606E-001  
  542.50  1.5686E-001  
  543.00  1.5806E-001  
  543.50  1.5954E-001  
  544.00  1.6079E-001  
  544.50  1.6188E-001  
  545.00  1.6278E-001  
  545.50  1.6374E-001  
  546.00  1.6464E-001  
  546.50  1.6540E-001  
  547.00  1.6603E-001  
  547.50  1.6648E-001  
  548.00  1.6744E-001  
  548.50  1.6866E-001  
  549.00  1.7020E-001  
  549.50  1.7146E-001  
  550.00  1.7236E-001  
  550.50  1.7333E-001  
  551.00  1.7446E-001  
  551.50  1.7573E-001  
  552.00  1.7696E-001  
  552.50  1.7793E-001  
  553.00  1.7892E-001  
  553.50  1.7982E-001  
  554.00  1.8080E-001  
  554.50  1.8174E-001  
  555.00  1.8301E-001  
  555.50  1.8389E-001  
  556.00  1.8496E-001  
  556.50  1.8573E-001  
  557.00  1.8675E-001  
  557.50  1.8796E-001  
  558.00  1.8914E-001  
  558.50  1.9027E-001  
  559.00  1.9149E-001  
  559.50  1.9241E-001  
  560.00  1.9370E-001  
  560.50  1.9451E-001  
  561.00  1.9595E-001  
  561.50  1.9728E-001  
  562.00  1.9816E-001  
  562.50  1.9924E-001  
  563.00  1.9981E-001  
  563.50  2.0075E-001  
  564.00  2.0153E-001  
  564.50  2.0247E-001  
  565.00  2.0365E-001  
  565.50  2.0517E-001  
  566.00  2.0596E-001  
  566.50  2.0662E-001  
  567.00  2.0737E-001  
  567.50  2.0855E-001  
  568.00  2.0984E-001  
  568.50  2.1047E-001  
  569.00  2.1090E-001  
  569.50  2.1171E-001  
  570.00  2.1268E-001  
  570.50  2.1387E-001  
  571.00  2.1482E-001  
  571.50  2.1564E-001  
  572.00  2.1662E-001  
  572.50  2.1805E-001  
  573.00  2.1936E-001  
  573.50  2.2055E-001  
  574.00  2.2127E-001  
  574.50  2.2229E-001  
  575.00  2.2321E-001  
  575.50  2.2464E-001  
  576.00  2.2602E-001  
  576.50  2.2726E-001  
  577.00  2.2791E-001  
  577.50  2.2852E-001  
  578.00  2.2934E-001  
  578.50  2.3024E-001  
  579.00  2.3095E-001  
  579.50  2.3172E-001  
  580.00  2.3314E-001  
  580.50  2.3414E-001  
  581.00  2.3543E-001  
  581.50  2.3619E-001  
  582.00  2.3720E-001  
  582.50  2.3789E-001  
  583.00  2.3832E-001  
  583.50  2.3871E-001  
  584.00  2.3939E-001  
  584.50  2.4036E-001  
  585.00  2.4183E-001  
  585.50  2.4336E-001  
  586.00  2.4494E-001  
  586.50  2.4587E-001  
  587.00  2.4634E-001  
  587.50  2.4717E-001  
  588.00  2.4776E-001  
  588.50  2.4882E-001  
  589.00  2.4914E-001  
  589.50  2.5002E-001  
  590.00  2.5110E-001  
  590.50  2.5253E-001  
  591.00  2.5380E-001  
  591.50  2.5534E-001  
  592.00  2.5717E-001  
  592.50  2.5836E-001  
  593.00  2.5908E-001  
  593.50  2.5919E-001  
  594.00  2.5977E-001  
  594.50  2.6080E-001  
  595.00  2.6190E-001  
  595.50  2.6297E-001  
  596.00  2.6364E-001  
  596.50  2.6401E-001  
  597.00  2.6432E-001  
  597.50  2.6494E-001  
  598.00  2.6569E-001  
  598.50  2.6656E-001  
  599.00  2.6743E-001  
  599.50  2.6868E-001  
  600.00  2.6935E-001  
  600.50  2.6999E-001  
  601.00  2.7051E-001  
  601.50  2.7125E-001  
  602.00  2.7231E-001  
  602.50  2.7314E-001  
  603.00  2.7393E-001  
  603.50  2.7442E-001  
  604.00  2.7529E-001  
  604.50  2.7623E-001  
  605.00  2.7697E-001  
  605.50  2.7769E-001  
  606.00  2.7841E-001  
  606.50  2.7965E-001  
  607.00  2.8082E-001  
  607.50  2.8191E-001  
  608.00  2.8288E-001  
  608.50  2.8352E-001  
  609.00  2.8396E-001  
  609.50  2.8450E-001  
  610.00  2.8508E-001  
  610.50  2.8590E-001  
  611.00  2.8679E-001  
  611.50  2.8804E-001  
  612.00  2.8919E-001  
  612.50  2.8995E-001  
  613.00  2.9048E-001  
  613.50  2.9113E-001  
  614.00  2.9203E-001  
  614.50  2.9314E-001  
  615.00  2.9378E-001  
  615.50  2.9439E-001  
  616.00  2.9454E-001  
  616.50  2.9493E-001  
  617.00  2.9549E-001  
  617.50  2.9616E-001  
  618.00  2.9686E-001  
  618.50  2.9717E-001  
  619.00  2.9752E-001  
  619.50  2.9873E-001  
  620.00  2.9957E-001  
  620.50  3.0020E-001  
  621.00  3.0055E-001  
  621.50  3.0115E-001  
  622.00  3.0208E-001  
  622.50  3.0264E-001  
  623.00  3.0345E-001  
  623.50  3.0432E-001  
  624.00  3.0519E-001  
  624.50  3.0575E-001  
  625.00  3.0603E-001  
  625.50  3.0600E-001  
  626.00  3.0627E-001  
  626.50  3.0680E-001  
  627.00  3.0780E-001  
  627.50  3.0857E-001  
  628.00  3.0970E-001  
  628.50  3.1067E-001  
  629.00  3.1135E-001  
  629.50  3.1150E-001  
  630.00  3.1221E-001  
  630.50  3.1286E-001  
  631.00  3.1411E-001  
  631.50  3.1534E-001  
  632.00  3.1640E-001  
  632.50  3.1645E-001  
  633.00  3.1681E-001  
  633.50  3.1758E-001  
  634.00  3.1906E-001  
  634.50  3.1996E-001  
  635.00  3.2045E-001  
  635.50  3.2073E-001  
  636.00  3.2089E-001  
  636.50  3.2135E-001  
  637.00  3.2226E-001  
  637.50  3.2337E-001  
  638.00  3.2429E-001  
  638.50  3.2544E-001  
  639.00  3.2629E-001  
  639.50  3.2654E-001  
  640.00  3.2685E-001  
  640.50  3.2710E-001  
  641.00  3.2787E-001  
  641.50  3.2833E-001  
  642.00  3.2914E-001  
  642.50  3.3035E-001  
  643.00  3.3128E-001  
  643.50  3.3161E-001  
  644.00  3.3163E-001  
  644.50  3.3164E-001  
  645.00  3.3257E-001  
  645.50  3.3308E-001  
  646.00  3.3408E-001  
  646.50  3.3520E-001  
  647.00  3.3681E-001  
  647.50  3.3763E-001  
  648.00  3.3797E-001  
  648.50  3.3786E-001  
  649.00  3.3820E-001  
  649.50  3.3877E-001  
  650.00  3.3917E-001  
  650.50  3.4003E-001  
  651.00  3.4036E-001  
  651.50  3.4103E-001  
  652.00  3.4153E-001  
  652.50  3.4176E-001  
  653.00  3.4221E-001  
  653.50  3.4252E-001  
  654.00  3.4352E-001  
  654.50  3.4431E-001  
  655.00  3.4499E-001  
  655.50  3.4564E-001  
  656.00  3.4641E-001  
  656.50  3.4719E-001  
  657.00  3.4710E-001  
  657.50  3.4702E-001  
  658.00  3.4732E-001  
  658.50  3.4848E-001  
  659.00  3.4891E-001  
  659.50  3.4930E-001  
  660.00  3.4980E-001  
  660.50  3.5100E-001  
  661.00  3.5236E-001  
  661.50  3.5361E-001  
  662.00  3.5390E-001  
  662.50  3.5364E-001  
  663.00  3.5342E-001  
  663.50  3.5406E-001  
  664.00  3.5413E-001  
  664.50  3.5359E-001  
  665.00  3.5331E-001  
  665.50  3.5316E-001  
  666.00  3.5266E-001  
  666.50  3.5261E-001  
  667.00  3.5331E-001  
  667.50  3.5499E-001  
  668.00  3.5636E-001  
  668.50  3.5755E-001  
  669.00  3.5759E-001  
  669.50  3.5735E-001  
  670.00  3.5698E-001  
  670.50  3.5788E-001  
  671.00  3.5880E-001  
  671.50  3.5938E-001  
  672.00  3.5929E-001  
  672.50  3.5936E-001  
  673.00  3.6029E-001  
  673.50  3.6065E-001  
  674.00  3.6085E-001  
  674.50  3.6047E-001  
  675.00  3.6036E-001  
  675.50  3.6071E-001  
  676.00  3.6167E-001  
  676.50  3.6235E-001  
  677.00  3.6225E-001  
  677.50  3.6220E-001  
  678.00  3.6245E-001  
  678.50  3.6231E-001  
  679.00  3.6154E-001  
  679.50  3.6143E-001  
  680.00  3.6230E-001  
  680.50  3.6332E-001  
  681.00  3.6326E-001  
  681.50  3.6307E-001  
  682.00  3.6342E-001  
  682.50  3.6480E-001  
  683.00  3.6538E-001  
  683.50  3.6529E-001  
  684.00  3.6516E-001  
  684.50  3.6560E-001  
  685.00  3.6533E-001  
  685.50  3.6522E-001  
  686.00  3.6496E-001  
  686.50  3.6611E-001  
  687.00  3.6706E-001  
  687.50  3.6859E-001  
  688.00  3.6920E-001  
  688.50  3.6864E-001  
  689.00  3.6753E-001  
  689.50  3.6724E-001  
  690.00  3.6821E-001  
  690.50  3.6919E-001  
  691.00  3.6912E-001  
  691.50  3.6859E-001  
  692.00  3.6843E-001  
  692.50  3.6903E-001  
  693.00  3.6880E-001  
  693.50  3.6840E-001  
  694.00  3.6879E-001  
  694.50  3.6999E-001  
  695.00  3.7025E-001  
  695.50  3.7010E-001  
  696.00  3.7055E-001  
  696.50  3.7177E-001  
  697.00  3.7233E-001  
  697.50  3.7270E-001  
  698.00  3.7283E-001  
  698.50  3.7296E-001  
  699.00  3.7222E-001  
  699.50  3.7220E-001  
  700.00  3.7263E-001  
  700.50  3.7323E-001  
  701.00  3.7380E-001  
  701.50  3.7453E-001  
  702.00  3.7548E-001  
  702.50  3.7596E-001  
  703.00  3.7547E-001  
  703.50  3.7483E-001  
  704.00  3.7482E-001  
  704.50  3.7564E-001  
  705.00  3.7655E-001  
  705.50  3.7654E-001  
  706.00  3.7629E-001  
  706.50  3.7614E-001  
  707.00  3.7592E-001  
  707.50  3.7674E-001  
  708.00  3.7755E-001  
  708.50  3.7933E-001  
  709.00  3.8027E-001  
  709.50  3.8121E-001  
  710.00  3.8122E-001  
  710.50  3.8134E-001  
  711.00  3.8141E-001  
  711.50  3.8156E-001  
  712.00  3.8149E-001  
  712.50  3.8165E-001  
  713.00  3.8169E-001  
  713.50  3.8205E-001  
  714.00  3.8262E-001  
  714.50  3.8257E-001  
  715.00  3.8271E-001  
  715.50  3.8266E-001  
  716.00  3.8283E-001  
  716.50  3.8265E-001  
  717.00  3.8220E-001  
  717.50  3.8267E-001  
  718.00  3.8352E-001  
  718.50  3.8351E-001  
  719.00  3.8298E-001  
  719.50  3.8248E-001  
  720.00  3.8266E-001  
  720.50  3.8250E-001  
  721.00  3.8305E-001  
  721.50  3.8409E-001  
  722.00  3.8489E-001  
  722.50  3.8489E-001  
  723.00  3.8445E-001  
  723.50  3.8440E-001  
  724.00  3.8462E-001  
  724.50  3.8509E-001  
  725.00  3.8542E-001  
  725.50  3.8543E-001  
  726.00  3.8506E-001  
  726.50  3.8508E-001  
  727.00  3.8610E-001  
  727.50  3.8736E-001  
  728.00  3.8739E-001  
  728.50  3.8799E-001  
  729.00  3.8907E-001  
  729.50  3.9076E-001  
  730.00  3.9128E-001  
  730.50  3.9074E-001  
  731.00  3.8927E-001  
  731.50  3.8957E-001  
  732.00  3.9008E-001  
  732.50  3.9028E-001  
  733.00  3.8972E-001  
  733.50  3.8985E-001  
  734.00  3.9126E-001  
  734.50  3.9274E-001  
  735.00  3.9436E-001  
  735.50  3.9400E-001  
  736.00  3.9305E-001  
  736.50  3.9209E-001  
  737.00  3.9241E-001  
  737.50  3.9255E-001  
  738.00  3.9287E-001  
  738.50  3.9342E-001  
  739.00  3.9429E-001  
  739.50  3.9512E-001  
  740.00  3.9577E-001  
  740.50  3.9495E-001  
  741.00  3.9355E-001  
  741.50  3.9311E-001  
  742.00  3.9417E-001  
  742.50  3.9495E-001  
  743.00  3.9498E-001  
  743.50  3.9449E-001  
  744.00  3.9468E-001  
  744.50  3.9555E-001  
  745.00  3.9695E-001  
  745.50  3.9689E-001  
  746.00  3.9597E-001  
  746.50  3.9502E-001  
  747.00  3.9520E-001  
  747.50  3.9638E-001  
  748.00  3.9662E-001  
  748.50  3.9680E-001  
  749.00  3.9744E-001  
  749.50  3.9861E-001  
  750.00  3.9937E-001  
  750.50  4.0020E-001  
  751.00  4.0104E-001  
  751.50  4.0095E-001  
  752.00  4.0109E-001  
  752.50  4.0139E-001  
  753.00  4.0135E-001  
  753.50  4.0024E-001  
  754.00  3.9999E-001  
  754.50  4.0026E-001  
  755.00  4.0079E-001  
  755.50  4.0086E-001  
  756.00  4.0190E-001  
  756.50  4.0289E-001  
  757.00  4.0305E-001  
  757.50  4.0280E-001  
  758.00  4.0292E-001  
  758.50  4.0294E-001  
  759.00  4.0257E-001  
  759.50  4.0318E-001  
  760.00  4.0467E-001  
  760.50  4.0571E-001  
  761.00  4.0499E-001  
  761.50  4.0481E-001  
  762.00  4.0521E-001  
  762.50  4.0513E-001  
  763.00  4.0559E-001  
  763.50  4.0577E-001  
  764.00  4.0663E-001  
  764.50  4.0535E-001  
  765.00  4.0499E-001  
  765.50  4.0648E-001  
  766.00  4.0866E-001  
  766.50  4.0972E-001  
  767.00  4.1103E-001  
  767.50  4.1147E-001  
  768.00  4.1247E-001  
  768.50  4.1194E-001  
  769.00  4.1069E-001  
  769.50  4.0859E-001  
  770.00  4.0786E-001  
  770.50  4.0905E-001  
  771.00  4.1027E-001  
  771.50  4.1073E-001  
  772.00  4.1059E-001  
  772.50  4.1204E-001  
  773.00  4.1232E-001  
  773.50  4.1289E-001  
  774.00  4.1309E-001  
  774.50  4.1311E-001  
  775.00  4.1184E-001  
  775.50  4.1068E-001  
  776.00  4.1035E-001  
  776.50  4.1046E-001  
  777.00  4.1046E-001  
  777.50  4.1054E-001  
  778.00  4.1059E-001  
  778.50  4.1126E-001  
  779.00  4.1165E-001  
  779.50  4.1234E-001  
  780.00  4.1386E-001  
  780.50  4.1413E-001  
  781.00  4.1391E-001  
  781.50  4.1355E-001  
  782.00  4.1422E-001  
  782.50  4.1463E-001  
  783.00  4.1581E-001  
  783.50  4.1680E-001  
  784.00  4.1604E-001  
  784.50  4.1581E-001  
  785.00  4.1518E-001  
  785.50  4.1508E-001  
  786.00  4.1520E-001  
  786.50  4.1713E-001  
  787.00  4.1711E-001  
  787.50  4.1654E-001  
  788.00  4.1668E-001  
  788.50  4.1692E-001  
  789.00  4.1823E-001  
  789.50  4.1952E-001  
  790.00  4.2058E-001  
  790.50  4.2045E-001  
  791.00  4.2019E-001  
  791.50  4.2147E-001  
  792.00  4.2137E-001  
  792.50  4.2170E-001  
  793.00  4.2208E-001  
  793.50  4.2112E-001  
  794.00  4.1921E-001  
  794.50  4.1941E-001  
  795.00  4.2201E-001  
  795.50  4.2386E-001  
  796.00  4.2468E-001  
  796.50  4.2481E-001  
  797.00  4.2455E-001  
  797.50  4.2398E-001  
  798.00  4.2329E-001  
  798.50  4.2456E-001  
  799.00  4.2592E-001  
  799.50  4.2682E-001  
  800.00  4.2559E-001  
  800.50  4.2495E-001  
  801.00  4.2376E-001  
  801.50  4.2346E-001  
  802.00  4.2444E-001  
  802.50  4.2672E-001  
  803.00  4.2648E-001  
  803.50  4.2662E-001  
  804.00  4.2674E-001  
  804.50  4.2735E-001  
  805.00  4.2723E-001  
  805.50  4.2725E-001  
  806.00  4.2836E-001  
  806.50  4.2887E-001  
  807.00  4.2929E-001  
  807.50  4.2920E-001  
  808.00  4.2941E-001  
  808.50  4.2792E-001  
  809.00  4.2802E-001  
  809.50  4.2855E-001  
  810.00  4.2975E-001  
  810.50  4.2975E-001  
  811.00  4.3143E-001  
  811.50  4.3257E-001  
  812.00  4.3396E-001  
  812.50  4.3394E-001  
  813.00  4.3448E-001  
  813.50  4.3427E-001  
  814.00  4.3266E-001  
  814.50  4.3147E-001  
  815.00  4.3272E-001  
  815.50  4.3475E-001  
  816.00  4.3509E-001  
  816.50  4.3378E-001  
  817.00  4.3344E-001  
  817.50  4.3320E-001  
  818.00  4.3574E-001  
  818.50  4.3695E-001  
  819.00  4.3571E-001  
  819.50  4.3408E-001  
  820.00  4.3201E-001  
  820.50  4.3303E-001  
  821.00  4.3604E-001  
  821.50  4.3919E-001  
  822.00  4.3739E-001  
  822.50  4.3399E-001  
  823.00  4.3354E-001  
  823.50  4.3608E-001  
  824.00  4.3814E-001  
  824.50  4.3814E-001  
  825.00  4.3789E-001  
  825.50  4.3851E-001  
  826.00  4.3896E-001  
  826.50  4.3969E-001  
  827.00  4.3821E-001  
  827.50  4.3679E-001  
  828.00  4.3786E-001  
  828.50  4.4055E-001  
  829.00  4.4116E-001  
  829.50  4.4098E-001  
  830.00  4.4182E-001  
  830.50  4.4174E-001  
  831.00  4.4251E-001  
  831.50  4.4354E-001  
  832.00  4.4188E-001  
  832.50  4.4100E-001  
  833.00  4.4275E-001  
  833.50  4.4545E-001  
  834.00  4.4626E-001  
  834.50  4.4711E-001  
  835.00  4.4558E-001  
  835.50  4.4328E-001  
  836.00  4.4282E-001  
  836.50  4.4474E-001  
  837.00  4.4499E-001  
  837.50  4.4742E-001  
  838.00  4.4540E-001  
  838.50  4.4420E-001  
  839.00  4.4368E-001  
  839.50  4.4452E-001  
  840.00  4.4591E-001  
  840.50  4.4929E-001  
  841.00  4.5090E-001  
  841.50  4.4893E-001  
  842.00  4.4687E-001  
  842.50  4.4386E-001  
  843.00  4.4284E-001  
  843.50  4.4418E-001  
  844.00  4.4498E-001  
  844.50  4.4411E-001  
  845.00  4.4710E-001  
  845.50  4.5036E-001  
  846.00  4.5176E-001  
  846.50  4.5030E-001  
  847.00  4.5121E-001  
  847.50  4.5138E-001  
  848.00  4.5036E-001  
  848.50  4.5004E-001  
  849.00  4.5107E-001  
  849.50  4.5494E-001  
  850.00  4.5609E-001  
  850.50  4.5224E-001  
  851.00  4.5057E-001  
  851.50  4.5082E-001  
  852.00  4.5033E-001  
  852.50  4.5043E-001  
  853.00  4.5160E-001  
  853.50  4.5289E-001  
  854.00  4.5020E-001  
  854.50  4.5041E-001  
  855.00  4.5157E-001  
  855.50  4.5361E-001  
  856.00  4.5367E-001  
  856.50  4.5434E-001  
  857.00  4.5328E-001  
  857.50  4.5333E-001  
  858.00  4.5331E-001  
  858.50  4.5375E-001  
  859.00  4.5439E-001  
  859.50  4.5625E-001  
  860.00  4.5595E-001  
  860.50  4.5454E-001  
  861.00  4.5364E-001  
  861.50  4.5526E-001  
  862.00  4.5853E-001  
  862.50  4.6131E-001  
  863.00  4.6037E-001  
  863.50  4.5661E-001  
  864.00  4.5426E-001  
  864.50  4.5244E-001  
  865.00  4.5048E-001  
  865.50  4.5262E-001  
  866.00  4.5428E-001  
  866.50  4.5558E-001  
  867.00  4.5539E-001  
  867.50  4.5652E-001  
  868.00  4.5833E-001  
  868.50  4.6299E-001  
  869.00  4.6434E-001  
  869.50  4.6045E-001  
  870.00  4.5520E-001  
  870.50  4.5253E-001  
  871.00  4.5338E-001  
  871.50  4.5675E-001  
  872.00  4.5539E-001  
  872.50  4.5532E-001  
  873.00  4.6120E-001  
  873.50  4.6338E-001  
  874.00  4.6051E-001  
  874.50  4.5601E-001  
  875.00  4.5405E-001  
  875.50  4.5409E-001  
  876.00  4.5443E-001  
  876.50  4.5448E-001  
  877.00  4.5760E-001  
  877.50  4.6227E-001  
  878.00  4.6153E-001  
  878.50  4.6127E-001  
  879.00  4.6378E-001  
  879.50  4.6412E-001  
  880.00  4.5896E-001  
  880.50  4.5886E-001  
  881.00  4.6270E-001  
  881.50  4.6158E-001  
  882.00  4.5766E-001  
  882.50  4.5608E-001  
  883.00  4.5793E-001  
  883.50  4.6275E-001  
  884.00  4.6374E-001  
  884.50  4.6023E-001  
  885.00  4.5729E-001  
  885.50  4.5634E-001  
  886.00  4.5623E-001  
  886.50  4.5107E-001  
  887.00  4.4939E-001  
  887.50  4.5223E-001  
  888.00  4.5540E-001  
  888.50  4.5786E-001  
  889.00  4.6171E-001  
  889.50  4.6152E-001  
  890.00  4.6239E-001  
  890.50  4.6291E-001  
  891.00  4.6294E-001  
  891.50  4.6064E-001  
  892.00  4.5804E-001  
  892.50  4.5649E-001  
  893.00  4.6058E-001  
  893.50  4.6145E-001  
  894.00  4.5727E-001  
  894.50  4.5826E-001  
  895.00  4.5947E-001  
  895.50  4.6029E-001  
  896.00  4.6384E-001  
  896.50  4.6690E-001  
  897.00  4.6578E-001  
  897.50  4.6107E-001  
  898.00  4.5924E-001  
  898.50  4.6266E-001  
  899.00  4.6336E-001  
  899.50  9.1442E-003  
