
# From lspdd.org
# 
# Name: INC GE domestic-use -
# Indice spectral Valeur 
# MSI 0.35 
# SLI 0.56 
# IPI 1.08 
# Pourcentage de bleu 13.4 
# Caractéristique Valeur 
# CCT calculée (K) 2609 
# CCT du fabricant (K) 2700 
# Tension (V) 120 
# Puissance (W) 150.0 
# Efficacité lumineuse (Lum/W) ND 
#
# Image: '/app/system/img_1s/2770/medium_image1.jpg?1622001365'
# 

  273.00  0.0000E+000  
  273.50  0.0000E+000  
  274.00  0.0000E+000  
  274.50  0.0000E+000  
  275.00  0.0000E+000  
  275.50  0.0000E+000  
  276.00  0.0000E+000  
  276.50  0.0000E+000  
  277.00  0.0000E+000  
  277.50  0.0000E+000  
  278.00  0.0000E+000  
  278.50  0.0000E+000  
  279.00  0.0000E+000  
  279.50  0.0000E+000  
  280.00  0.0000E+000  
  280.50  0.0000E+000  
  281.00  0.0000E+000  
  281.50  0.0000E+000  
  282.00  0.0000E+000  
  282.50  0.0000E+000  
  283.00  0.0000E+000  
  283.50  0.0000E+000  
  284.00  0.0000E+000  
  284.50  0.0000E+000  
  285.00  0.0000E+000  
  285.50  0.0000E+000  
  286.00  0.0000E+000  
  286.50  0.0000E+000  
  287.00  0.0000E+000  
  287.50  0.0000E+000  
  288.00  0.0000E+000  
  288.50  0.0000E+000  
  289.00  0.0000E+000  
  289.50  0.0000E+000  
  290.00  0.0000E+000  
  290.50  0.0000E+000  
  291.00  0.0000E+000  
  291.50  0.0000E+000  
  292.00  0.0000E+000  
  292.50  0.0000E+000  
  293.00  0.0000E+000  
  293.50  0.0000E+000  
  294.00  0.0000E+000  
  294.50  0.0000E+000  
  295.00  0.0000E+000  
  295.50  0.0000E+000  
  296.00  0.0000E+000  
  296.50  0.0000E+000  
  297.00  0.0000E+000  
  297.50  0.0000E+000  
  298.00  0.0000E+000  
  298.50  0.0000E+000  
  299.00  0.0000E+000  
  299.50  0.0000E+000  
  300.00  1.0789E-004  
  300.50  3.0434E-004  
  301.00  3.4029E-004  
  301.50  2.4985E-004  
  302.00  2.8259E-004  
  302.50  3.8320E-004  
  303.00  5.1862E-004  
  303.50  8.1312E-004  
  304.00  9.1104E-004  
  304.50  9.6441E-004  
  305.00  1.0445E-003  
  305.50  1.0786E-003  
  306.00  1.3160E-003  
  306.50  1.3456E-003  
  307.00  1.2024E-003  
  307.50  1.0094E-003  
  308.00  8.0294E-004  
  308.50  6.1125E-004  
  309.00  6.0038E-004  
  309.50  5.3336E-004  
  310.00  5.2784E-004  
  310.50  5.9323E-004  
  311.00  6.7675E-004  
  311.50  8.1943E-004  
  312.00  1.0168E-003  
  312.50  1.1086E-003  
  313.00  1.0176E-003  
  313.50  8.5266E-004  
  314.00  6.3019E-004  
  314.50  4.7329E-004  
  315.00  4.0291E-004  
  315.50  3.5888E-004  
  316.00  3.6187E-004  
  316.50  2.9349E-004  
  317.00  3.1408E-004  
  317.50  3.6254E-004  
  318.00  4.2811E-004  
  318.50  4.9696E-004  
  319.00  5.6189E-004  
  319.50  6.4524E-004  
  320.00  5.6343E-004  
  320.50  4.2630E-004  
  321.00  4.0077E-004  
  321.50  4.5943E-004  
  322.00  6.7968E-004  
  322.50  7.6314E-004  
  323.00  5.5983E-004  
  323.50  3.3680E-004  
  324.00  3.5600E-004  
  324.50  5.6721E-004  
  325.00  8.3587E-004  
  325.50  9.0536E-004  
  326.00  9.0032E-004  
  326.50  7.9742E-004  
  327.00  7.9195E-004  
  327.50  9.9960E-004  
  328.00  1.1979E-003  
  328.50  1.2225E-003  
  329.00  1.2418E-003  
  329.50  9.2126E-004  
  330.00  6.6403E-004  
  330.50  5.8721E-004  
  331.00  5.2369E-004  
  331.50  8.0601E-004  
  332.00  1.1344E-003  
  332.50  1.4561E-003  
  333.00  1.6127E-003  
  333.50  1.4011E-003  
  334.00  1.0535E-003  
  334.50  7.2879E-004  
  335.00  5.3193E-004  
  335.50  4.1200E-004  
  336.00  4.3006E-004  
  336.50  4.5242E-004  
  337.00  6.7248E-004  
  337.50  8.6701E-004  
  338.00  9.5732E-004  
  338.50  1.0828E-003  
  339.00  1.0400E-003  
  339.50  1.0094E-003  
  340.00  1.2153E-003  
  340.50  1.2582E-003  
  341.00  1.2551E-003  
  341.50  1.1657E-003  
  342.00  7.9965E-004  
  342.50  6.3159E-004  
  343.00  9.3455E-004  
  343.50  1.2978E-003  
  344.00  1.9016E-003  
  344.50  2.0794E-003  
  345.00  1.8789E-003  
  345.50  1.7505E-003  
  346.00  1.5820E-003  
  346.50  1.5668E-003  
  347.00  1.5418E-003  
  347.50  1.6286E-003  
  348.00  1.8078E-003  
  348.50  1.8595E-003  
  349.00  1.9277E-003  
  349.50  1.7704E-003  
  350.00  1.7700E-003  
  350.50  2.0050E-003  
  351.00  2.2568E-003  
  351.50  2.5007E-003  
  352.00  2.4952E-003  
  352.50  2.1847E-003  
  353.00  2.0146E-003  
  353.50  2.0388E-003  
  354.00  2.3052E-003  
  354.50  2.6780E-003  
  355.00  2.6668E-003  
  355.50  2.4016E-003  
  356.00  2.3378E-003  
  356.50  2.4881E-003  
  357.00  2.7813E-003  
  357.50  2.9886E-003  
  358.00  2.9763E-003  
  358.50  2.7736E-003  
  359.00  2.7564E-003  
  359.50  2.8028E-003  
  360.00  3.1006E-003  
  360.50  3.5456E-003  
  361.00  3.9511E-003  
  361.50  4.1852E-003  
  362.00  4.2107E-003  
  362.50  4.2126E-003  
  363.00  4.1655E-003  
  363.50  4.1568E-003  
  364.00  4.3520E-003  
  364.50  4.5415E-003  
  365.00  4.7319E-003  
  365.50  4.8138E-003  
  366.00  4.8427E-003  
  366.50  4.8933E-003  
  367.00  4.9889E-003  
  367.50  5.0725E-003  
  368.00  5.0996E-003  
  368.50  5.3988E-003  
  369.00  5.8222E-003  
  369.50  6.2632E-003  
  370.00  6.6736E-003  
  370.50  6.9692E-003  
  371.00  7.1409E-003  
  371.50  7.1956E-003  
  372.00  7.0578E-003  
  372.50  6.8477E-003  
  373.00  6.8429E-003  
  373.50  6.8985E-003  
  374.00  7.2081E-003  
  374.50  7.4251E-003  
  375.00  7.7025E-003  
  375.50  7.9427E-003  
  376.00  8.0955E-003  
  376.50  8.2519E-003  
  377.00  8.3758E-003  
  377.50  8.5980E-003  
  378.00  8.9122E-003  
  378.50  9.1438E-003  
  379.00  9.3375E-003  
  379.50  9.5896E-003  
  380.00  9.7494E-003  
  380.50  9.8837E-003  
  381.00  9.9147E-003  
  381.50  9.8478E-003  
  382.00  9.8637E-003  
  382.50  9.9799E-003  
  383.00  1.0166E-002  
  383.50  1.0465E-002  
  384.00  1.0587E-002  
  384.50  1.0829E-002  
  385.00  1.1133E-002  
  385.50  1.1311E-002  
  386.00  1.1595E-002  
  386.50  1.1747E-002  
  387.00  1.1730E-002  
  387.50  1.1920E-002  
  388.00  1.2070E-002  
  388.50  1.2184E-002  
  389.00  1.2297E-002  
  389.50  1.2498E-002  
  390.00  1.2811E-002  
  390.50  1.3027E-002  
  391.00  1.3277E-002  
  391.50  1.3416E-002  
  392.00  1.3398E-002  
  392.50  1.3596E-002  
  393.00  1.3765E-002  
  393.50  1.4062E-002  
  394.00  1.4538E-002  
  394.50  1.4884E-002  
  395.00  1.5096E-002  
  395.50  1.5421E-002  
  396.00  1.5558E-002  
  396.50  1.5596E-002  
  397.00  1.5591E-002  
  397.50  1.5663E-002  
  398.00  1.6029E-002  
  398.50  1.6598E-002  
  399.00  1.7000E-002  
  399.50  1.7162E-002  
  400.00  1.7218E-002  
  400.50  1.7147E-002  
  401.00  1.7258E-002  
  401.50  1.7322E-002  
  402.00  1.7551E-002  
  402.50  1.7782E-002  
  403.00  1.7958E-002  
  403.50  1.8243E-002  
  404.00  1.8237E-002  
  404.50  1.8423E-002  
  405.00  1.8587E-002  
  405.50  1.8923E-002  
  406.00  1.9404E-002  
  406.50  1.9469E-002  
  407.00  1.9598E-002  
  407.50  1.9909E-002  
  408.00  2.0324E-002  
  408.50  2.0959E-002  
  409.00  2.1580E-002  
  409.50  2.1572E-002  
  410.00  2.1620E-002  
  410.50  2.1461E-002  
  411.00  2.1436E-002  
  411.50  2.1766E-002  
  412.00  2.2016E-002  
  412.50  2.2353E-002  
  413.00  2.2631E-002  
  413.50  2.2935E-002  
  414.00  2.3283E-002  
  414.50  2.3535E-002  
  415.00  2.3986E-002  
  415.50  2.4235E-002  
  416.00  2.4575E-002  
  416.50  2.4599E-002  
  417.00  2.4662E-002  
  417.50  2.4954E-002  
  418.00  2.5295E-002  
  418.50  2.5526E-002  
  419.00  2.5563E-002  
  419.50  2.5618E-002  
  420.00  2.5801E-002  
  420.50  2.6183E-002  
  421.00  2.6554E-002  
  421.50  2.6684E-002  
  422.00  2.6832E-002  
  422.50  2.6942E-002  
  423.00  2.7367E-002  
  423.50  2.7821E-002  
  424.00  2.8289E-002  
  424.50  2.8657E-002  
  425.00  2.8863E-002  
  425.50  2.9216E-002  
  426.00  2.9572E-002  
  426.50  2.9857E-002  
  427.00  2.9933E-002  
  427.50  3.0023E-002  
  428.00  3.0285E-002  
  428.50  3.0953E-002  
  429.00  3.1512E-002  
  429.50  3.1625E-002  
  430.00  3.1410E-002  
  430.50  3.1074E-002  
  431.00  3.0941E-002  
  431.50  3.1336E-002  
  432.00  3.2095E-002  
  432.50  3.2712E-002  
  433.00  3.3042E-002  
  433.50  3.3118E-002  
  434.00  3.3427E-002  
  434.50  3.4055E-002  
  435.00  3.4676E-002  
  435.50  3.5172E-002  
  436.00  3.5665E-002  
  436.50  3.5865E-002  
  437.00  3.5981E-002  
  437.50  3.6005E-002  
  438.00  3.6146E-002  
  438.50  3.6711E-002  
  439.00  3.7152E-002  
  439.50  3.7583E-002  
  440.00  3.8112E-002  
  440.50  3.8609E-002  
  441.00  3.9033E-002  
  441.50  3.9307E-002  
  442.00  3.9626E-002  
  442.50  3.9977E-002  
  443.00  4.0364E-002  
  443.50  4.0647E-002  
  444.00  4.0898E-002  
  444.50  4.0989E-002  
  445.00  4.0901E-002  
  445.50  4.0975E-002  
  446.00  4.1257E-002  
  446.50  4.1836E-002  
  447.00  4.2405E-002  
  447.50  4.3024E-002  
  448.00  4.3511E-002  
  448.50  4.4102E-002  
  449.00  4.4499E-002  
  449.50  4.4851E-002  
  450.00  4.4859E-002  
  450.50  4.4972E-002  
  451.00  4.5238E-002  
  451.50  4.5605E-002  
  452.00  4.6199E-002  
  452.50  4.6547E-002  
  453.00  4.7044E-002  
  453.50  4.7468E-002  
  454.00  4.7799E-002  
  454.50  4.7880E-002  
  455.00  4.8131E-002  
  455.50  4.8510E-002  
  456.00  4.9180E-002  
  456.50  4.9740E-002  
  457.00  5.0245E-002  
  457.50  5.0615E-002  
  458.00  5.0846E-002  
  458.50  5.0955E-002  
  459.00  5.1114E-002  
  459.50  5.1044E-002  
  460.00  5.1330E-002  
  460.50  5.1465E-002  
  461.00  5.2142E-002  
  461.50  5.3139E-002  
  462.00  5.4133E-002  
  462.50  5.5176E-002  
  463.00  5.5792E-002  
  463.50  5.6054E-002  
  464.00  5.6343E-002  
  464.50  5.6789E-002  
  465.00  5.7276E-002  
  465.50  5.7262E-002  
  466.00  5.7129E-002  
  466.50  5.7239E-002  
  467.00  5.7843E-002  
  467.50  5.9003E-002  
  468.00  5.9802E-002  
  468.50  6.0650E-002  
  469.00  6.1266E-002  
  469.50  6.1845E-002  
  470.00  6.2480E-002  
  470.50  6.2916E-002  
  471.00  6.3204E-002  
  471.50  6.3131E-002  
  472.00  6.3282E-002  
  472.50  6.3189E-002  
  473.00  6.3594E-002  
  473.50  6.4185E-002  
  474.00  6.5089E-002  
  474.50  6.5871E-002  
  475.00  6.6079E-002  
  475.50  6.6045E-002  
  476.00  6.5938E-002  
  476.50  6.6722E-002  
  477.00  6.7710E-002  
  477.50  6.8394E-002  
  478.00  6.8898E-002  
  478.50  6.8966E-002  
  479.00  6.9603E-002  
  479.50  7.0240E-002  
  480.00  7.0977E-002  
  480.50  7.1447E-002  
  481.00  7.1500E-002  
  481.50  7.1985E-002  
  482.00  7.2509E-002  
  482.50  7.3373E-002  
  483.00  7.4113E-002  
  483.50  7.4422E-002  
  484.00  7.4721E-002  
  484.50  7.4808E-002  
  485.00  7.5049E-002  
  485.50  7.5220E-002  
  486.00  7.5611E-002  
  486.50  7.6182E-002  
  487.00  7.6546E-002  
  487.50  7.6908E-002  
  488.00  7.7120E-002  
  488.50  7.7529E-002  
  489.00  7.7944E-002  
  489.50  7.8354E-002  
  490.00  7.8416E-002  
  490.50  7.8520E-002  
  491.00  7.8821E-002  
  491.50  7.9101E-002  
  492.00  7.9585E-002  
  492.50  7.9755E-002  
  493.00  7.9735E-002  
  493.50  7.9542E-002  
  494.00  7.9313E-002  
  494.50  7.9413E-002  
  495.00  7.9869E-002  
  495.50  8.0472E-002  
  496.00  8.0892E-002  
  496.50  8.1011E-002  
  497.00  8.1297E-002  
  497.50  8.1515E-002  
  498.00  8.1969E-002  
  498.50  8.2257E-002  
  499.00  8.2457E-002  
  499.50  8.2691E-002  
  500.00  8.2758E-002  
  500.50  8.2955E-002  
  501.00  8.3181E-002  
  501.50  8.3501E-002  
  502.00  8.3807E-002  
  502.50  8.4120E-002  
  503.00  8.4504E-002  
  503.50  8.4850E-002  
  504.00  8.5162E-002  
  504.50  8.5329E-002  
  505.00  8.5646E-002  
  505.50  8.5938E-002  
  506.00  8.6080E-002  
  506.50  8.6346E-002  
  507.00  8.6533E-002  
  507.50  8.6839E-002  
  508.00  8.7025E-002  
  508.50  8.6941E-002  
  509.00  8.6756E-002  
  509.50  8.6610E-002  
  510.00  8.6598E-002  
  510.50  8.6720E-002  
  511.00  8.6924E-002  
  511.50  8.6911E-002  
  512.00  8.6880E-002  
  512.50  8.6766E-002  
  513.00  8.6817E-002  
  513.50  8.6920E-002  
  514.00  8.7293E-002  
  514.50  8.7908E-002  
  515.00  8.8760E-002  
  515.50  8.9951E-002  
  516.00  9.0890E-002  
  516.50  9.1635E-002  
  517.00  9.2207E-002  
  517.50  9.2792E-002  
  518.00  9.3673E-002  
  518.50  9.4462E-002  
  519.00  9.5206E-002  
  519.50  9.5742E-002  
  520.00  9.6195E-002  
  520.50  9.6460E-002  
  521.00  9.6615E-002  
  521.50  9.6544E-002  
  522.00  9.6345E-002  
  522.50  9.5803E-002  
  523.00  9.5246E-002  
  523.50  9.4815E-002  
  524.00  9.4476E-002  
  524.50  9.4594E-002  
  525.00  9.4884E-002  
  525.50  9.5334E-002  
  526.00  9.5657E-002  
  526.50  9.5843E-002  
  527.00  9.6261E-002  
  527.50  9.6715E-002  
  528.00  9.7170E-002  
  528.50  9.7562E-002  
  529.00  9.7808E-002  
  529.50  9.8472E-002  
  530.00  9.9138E-002  
  530.50  1.0005E-001  
  531.00  1.0099E-001  
  531.50  1.0192E-001  
  532.00  1.0301E-001  
  532.50  1.0425E-001  
  533.00  1.0563E-001  
  533.50  1.0730E-001  
  534.00  1.0892E-001  
  534.50  1.1057E-001  
  535.00  1.1226E-001  
  535.50  1.1425E-001  
  536.00  1.1614E-001  
  536.50  1.1814E-001  
  537.00  1.1997E-001  
  537.50  1.2179E-001  
  538.00  1.2327E-001  
  538.50  1.2443E-001  
  539.00  1.2570E-001  
  539.50  1.2726E-001  
  540.00  1.2896E-001  
  540.50  1.3042E-001  
  541.00  1.3172E-001  
  541.50  1.3280E-001  
  542.00  1.3390E-001  
  542.50  1.3499E-001  
  543.00  1.3652E-001  
  543.50  1.3826E-001  
  544.00  1.3979E-001  
  544.50  1.4103E-001  
  545.00  1.4188E-001  
  545.50  1.4269E-001  
  546.00  1.4361E-001  
  546.50  1.4428E-001  
  547.00  1.4507E-001  
  547.50  1.4569E-001  
  548.00  1.4665E-001  
  548.50  1.4800E-001  
  549.00  1.4941E-001  
  549.50  1.5053E-001  
  550.00  1.5122E-001  
  550.50  1.5216E-001  
  551.00  1.5335E-001  
  551.50  1.5427E-001  
  552.00  1.5500E-001  
  552.50  1.5556E-001  
  553.00  1.5630E-001  
  553.50  1.5745E-001  
  554.00  1.5852E-001  
  554.50  1.5968E-001  
  555.00  1.6045E-001  
  555.50  1.6075E-001  
  556.00  1.6131E-001  
  556.50  1.6190E-001  
  557.00  1.6288E-001  
  557.50  1.6389E-001  
  558.00  1.6472E-001  
  558.50  1.6562E-001  
  559.00  1.6634E-001  
  559.50  1.6703E-001  
  560.00  1.6803E-001  
  560.50  1.6846E-001  
  561.00  1.6941E-001  
  561.50  1.7032E-001  
  562.00  1.7071E-001  
  562.50  1.7136E-001  
  563.00  1.7133E-001  
  563.50  1.7164E-001  
  564.00  1.7170E-001  
  564.50  1.7149E-001  
  565.00  1.7116E-001  
  565.50  1.7062E-001  
  566.00  1.6930E-001  
  566.50  1.6727E-001  
  567.00  1.6432E-001  
  567.50  1.6089E-001  
  568.00  1.5670E-001  
  568.50  1.5133E-001  
  569.00  1.4502E-001  
  569.50  1.3798E-001  
  570.00  1.3091E-001  
  570.50  1.2429E-001  
  571.00  1.1833E-001  
  571.50  1.1358E-001  
  572.00  1.1022E-001  
  572.50  1.0824E-001  
  573.00  1.0759E-001  
  573.50  1.0756E-001  
  574.00  1.0796E-001  
  574.50  1.0849E-001  
  575.00  1.0900E-001  
  575.50  1.0982E-001  
  576.00  1.1072E-001  
  576.50  1.1186E-001  
  577.00  1.1303E-001  
  577.50  1.1427E-001  
  578.00  1.1545E-001  
  578.50  1.1672E-001  
  579.00  1.1778E-001  
  579.50  1.1860E-001  
  580.00  1.1897E-001  
  580.50  1.1829E-001  
  581.00  1.1673E-001  
  581.50  1.1404E-001  
  582.00  1.1089E-001  
  582.50  1.0742E-001  
  583.00  1.0389E-001  
  583.50  1.0056E-001  
  584.00  9.7938E-002  
  584.50  9.6123E-002  
  585.00  9.5345E-002  
  585.50  9.5455E-002  
  586.00  9.6472E-002  
  586.50  9.8375E-002  
  587.00  1.0087E-001  
  587.50  1.0384E-001  
  588.00  1.0707E-001  
  588.50  1.1050E-001  
  589.00  1.1362E-001  
  589.50  1.1673E-001  
  590.00  1.1966E-001  
  590.50  1.2258E-001  
  591.00  1.2560E-001  
  591.50  1.2855E-001  
  592.00  1.3169E-001  
  592.50  1.3481E-001  
  593.00  1.3809E-001  
  593.50  1.4163E-001  
  594.00  1.4573E-001  
  594.50  1.5033E-001  
  595.00  1.5491E-001  
  595.50  1.5939E-001  
  596.00  1.6344E-001  
  596.50  1.6718E-001  
  597.00  1.7039E-001  
  597.50  1.7320E-001  
  598.00  1.7574E-001  
  598.50  1.7820E-001  
  599.00  1.8080E-001  
  599.50  1.8403E-001  
  600.00  1.8708E-001  
  600.50  1.9038E-001  
  601.00  1.9342E-001  
  601.50  1.9648E-001  
  602.00  1.9922E-001  
  602.50  2.0177E-001  
  603.00  2.0426E-001  
  603.50  2.0656E-001  
  604.00  2.0862E-001  
  604.50  2.1082E-001  
  605.00  2.1314E-001  
  605.50  2.1546E-001  
  606.00  2.1714E-001  
  606.50  2.1881E-001  
  607.00  2.2054E-001  
  607.50  2.2257E-001  
  608.00  2.2417E-001  
  608.50  2.2519E-001  
  609.00  2.2667E-001  
  609.50  2.2861E-001  
  610.00  2.3090E-001  
  610.50  2.3264E-001  
  611.00  2.3456E-001  
  611.50  2.3708E-001  
  612.00  2.3969E-001  
  612.50  2.4166E-001  
  613.00  2.4300E-001  
  613.50  2.4430E-001  
  614.00  2.4649E-001  
  614.50  2.4861E-001  
  615.00  2.5043E-001  
  615.50  2.5194E-001  
  616.00  2.5307E-001  
  616.50  2.5451E-001  
  617.00  2.5549E-001  
  617.50  2.5632E-001  
  618.00  2.5667E-001  
  618.50  2.5670E-001  
  619.00  2.5694E-001  
  619.50  2.5780E-001  
  620.00  2.5866E-001  
  620.50  2.5935E-001  
  621.00  2.5953E-001  
  621.50  2.5961E-001  
  622.00  2.5962E-001  
  622.50  2.5982E-001  
  623.00  2.6033E-001  
  623.50  2.6098E-001  
  624.00  2.6164E-001  
  624.50  2.6209E-001  
  625.00  2.6276E-001  
  625.50  2.6344E-001  
  626.00  2.6398E-001  
  626.50  2.6462E-001  
  627.00  2.6516E-001  
  627.50  2.6598E-001  
  628.00  2.6671E-001  
  628.50  2.6723E-001  
  629.00  2.6729E-001  
  629.50  2.6735E-001  
  630.00  2.6798E-001  
  630.50  2.6882E-001  
  631.00  2.6957E-001  
  631.50  2.7005E-001  
  632.00  2.7071E-001  
  632.50  2.7112E-001  
  633.00  2.7179E-001  
  633.50  2.7276E-001  
  634.00  2.7447E-001  
  634.50  2.7571E-001  
  635.00  2.7636E-001  
  635.50  2.7669E-001  
  636.00  2.7711E-001  
  636.50  2.7740E-001  
  637.00  2.7777E-001  
  637.50  2.7853E-001  
  638.00  2.7922E-001  
  638.50  2.7984E-001  
  639.00  2.7975E-001  
  639.50  2.8008E-001  
  640.00  2.8044E-001  
  640.50  2.8111E-001  
  641.00  2.8200E-001  
  641.50  2.8309E-001  
  642.00  2.8393E-001  
  642.50  2.8502E-001  
  643.00  2.8591E-001  
  643.50  2.8668E-001  
  644.00  2.8686E-001  
  644.50  2.8635E-001  
  645.00  2.8653E-001  
  645.50  2.8681E-001  
  646.00  2.8783E-001  
  646.50  2.8871E-001  
  647.00  2.8921E-001  
  647.50  2.8890E-001  
  648.00  2.8946E-001  
  648.50  2.9042E-001  
  649.00  2.9181E-001  
  649.50  2.9220E-001  
  650.00  2.9215E-001  
  650.50  2.9250E-001  
  651.00  2.9295E-001  
  651.50  2.9360E-001  
  652.00  2.9411E-001  
  652.50  2.9472E-001  
  653.00  2.9542E-001  
  653.50  2.9569E-001  
  654.00  2.9588E-001  
  654.50  2.9610E-001  
  655.00  2.9687E-001  
  655.50  2.9717E-001  
  656.00  2.9688E-001  
  656.50  2.9689E-001  
  657.00  2.9734E-001  
  657.50  2.9839E-001  
  658.00  2.9922E-001  
  658.50  3.0011E-001  
  659.00  3.0087E-001  
  659.50  3.0111E-001  
  660.00  3.0137E-001  
  660.50  3.0145E-001  
  661.00  3.0141E-001  
  661.50  3.0150E-001  
  662.00  3.0219E-001  
  662.50  3.0328E-001  
  663.00  3.0321E-001  
  663.50  3.0292E-001  
  664.00  3.0333E-001  
  664.50  3.0389E-001  
  665.00  3.0355E-001  
  665.50  3.0244E-001  
  666.00  3.0199E-001  
  666.50  3.0202E-001  
  667.00  3.0195E-001  
  667.50  3.0225E-001  
  668.00  3.0262E-001  
  668.50  3.0323E-001  
  669.00  3.0321E-001  
  669.50  3.0353E-001  
  670.00  3.0374E-001  
  670.50  3.0443E-001  
  671.00  3.0428E-001  
  671.50  3.0411E-001  
  672.00  3.0354E-001  
  672.50  3.0375E-001  
  673.00  3.0422E-001  
  673.50  3.0423E-001  
  674.00  3.0422E-001  
  674.50  3.0440E-001  
  675.00  3.0465E-001  
  675.50  3.0448E-001  
  676.00  3.0435E-001  
  676.50  3.0392E-001  
  677.00  3.0352E-001  
  677.50  3.0307E-001  
  678.00  3.0314E-001  
  678.50  3.0319E-001  
  679.00  3.0316E-001  
  679.50  3.0338E-001  
  680.00  3.0299E-001  
  680.50  3.0271E-001  
  681.00  3.0168E-001  
  681.50  3.0123E-001  
  682.00  3.0077E-001  
  682.50  3.0137E-001  
  683.00  3.0142E-001  
  683.50  3.0060E-001  
  684.00  2.9912E-001  
  684.50  2.9861E-001  
  685.00  2.9862E-001  
  685.50  2.9957E-001  
  686.00  3.0056E-001  
  686.50  3.0182E-001  
  687.00  3.0300E-001  
  687.50  3.0425E-001  
  688.00  3.0533E-001  
  688.50  3.0592E-001  
  689.00  3.0551E-001  
  689.50  3.0537E-001  
  690.00  3.0625E-001  
  690.50  3.0778E-001  
  691.00  3.0838E-001  
  691.50  3.0790E-001  
  692.00  3.0781E-001  
  692.50  3.0790E-001  
  693.00  3.0846E-001  
  693.50  3.0913E-001  
  694.00  3.0958E-001  
  694.50  3.0935E-001  
  695.00  3.0946E-001  
  695.50  3.1045E-001  
  696.00  3.1171E-001  
  696.50  3.1262E-001  
  697.00  3.1360E-001  
  697.50  3.1428E-001  
  698.00  3.1406E-001  
  698.50  3.1355E-001  
  699.00  3.1346E-001  
  699.50  3.1385E-001  
  700.00  3.1483E-001  
  700.50  3.1516E-001  
  701.00  3.1610E-001  
  701.50  3.1647E-001  
  702.00  3.1702E-001  
  702.50  3.1712E-001  
  703.00  3.1756E-001  
  703.50  3.1861E-001  
  704.00  3.1900E-001  
  704.50  3.1893E-001  
  705.00  3.1924E-001  
  705.50  3.1967E-001  
  706.00  3.1982E-001  
  706.50  3.1934E-001  
  707.00  3.1926E-001  
  707.50  3.1927E-001  
  708.00  3.1932E-001  
  708.50  3.1959E-001  
  709.00  3.2018E-001  
  709.50  3.2109E-001  
  710.00  3.2165E-001  
  710.50  3.2173E-001  
  711.00  3.2150E-001  
  711.50  3.2138E-001  
  712.00  3.2141E-001  
  712.50  3.2122E-001  
  713.00  3.2109E-001  
  713.50  3.2141E-001  
  714.00  3.2247E-001  
  714.50  3.2262E-001  
  715.00  3.2199E-001  
  715.50  3.2144E-001  
  716.00  3.2169E-001  
  716.50  3.2161E-001  
  717.00  3.2136E-001  
  717.50  3.2181E-001  
  718.00  3.2255E-001  
  718.50  3.2281E-001  
  719.00  3.2242E-001  
  719.50  3.2214E-001  
  720.00  3.2170E-001  
  720.50  3.2178E-001  
  721.00  3.2231E-001  
  721.50  3.2263E-001  
  722.00  3.2244E-001  
  722.50  3.2230E-001  
  723.00  3.2183E-001  
  723.50  3.2097E-001  
  724.00  3.2027E-001  
  724.50  3.1992E-001  
  725.00  3.1907E-001  
  725.50  3.1783E-001  
  726.00  3.1694E-001  
  726.50  3.1685E-001  
  727.00  3.1699E-001  
  727.50  3.1675E-001  
  728.00  3.1618E-001  
  728.50  3.1545E-001  
  729.00  3.1395E-001  
  729.50  3.1247E-001  
  730.00  3.1114E-001  
  730.50  3.0964E-001  
  731.00  3.0653E-001  
  731.50  3.0270E-001  
  732.00  2.9855E-001  
  732.50  2.9442E-001  
  733.00  2.8988E-001  
  733.50  2.8498E-001  
  734.00  2.7946E-001  
  734.50  2.7404E-001  
  735.00  2.6790E-001  
  735.50  2.6094E-001  
  736.00  2.5427E-001  
  736.50  2.4918E-001  
  737.00  2.4416E-001  
  737.50  2.3963E-001  
  738.00  2.3670E-001  
  738.50  2.3603E-001  
  739.00  2.3676E-001  
  739.50  2.3712E-001  
  740.00  2.3679E-001  
  740.50  2.3562E-001  
  741.00  2.3463E-001  
  741.50  2.3452E-001  
  742.00  2.3489E-001  
  742.50  2.3577E-001  
  743.00  2.3741E-001  
  743.50  2.3935E-001  
  744.00  2.4051E-001  
  744.50  2.4117E-001  
  745.00  2.4192E-001  
  745.50  2.4219E-001  
  746.00  2.4142E-001  
  746.50  2.3991E-001  
  747.00  2.3885E-001  
  747.50  2.3861E-001  
  748.00  2.3780E-001  
  748.50  2.3638E-001  
  749.00  2.3582E-001  
  749.50  2.3667E-001  
  750.00  2.3870E-001  
  750.50  2.4097E-001  
  751.00  2.4332E-001  
  751.50  2.4518E-001  
  752.00  2.4766E-001  
  752.50  2.5139E-001  
  753.00  2.5410E-001  
  753.50  2.5559E-001  
  754.00  2.5809E-001  
  754.50  2.6128E-001  
  755.00  2.6450E-001  
  755.50  2.6565E-001  
  756.00  2.6803E-001  
  756.50  2.7139E-001  
  757.00  2.7566E-001  
  757.50  2.7837E-001  
  758.00  2.8130E-001  
  758.50  2.8428E-001  
  759.00  2.8720E-001  
  759.50  2.8940E-001  
  760.00  2.9037E-001  
  760.50  2.9176E-001  
  761.00  2.9470E-001  
  761.50  2.9798E-001  
  762.00  3.0070E-001  
  762.50  3.0217E-001  
  763.00  3.0375E-001  
  763.50  3.0446E-001  
  764.00  3.0544E-001  
  764.50  3.0710E-001  
  765.00  3.0953E-001  
  765.50  3.1242E-001  
  766.00  3.1427E-001  
  766.50  3.1518E-001  
  767.00  3.1681E-001  
  767.50  3.1811E-001  
  768.00  3.1927E-001  
  768.50  3.1957E-001  
  769.00  3.2123E-001  
  769.50  3.2267E-001  
  770.00  3.2265E-001  
  770.50  3.2323E-001  
  771.00  3.2508E-001  
  771.50  3.2614E-001  
  772.00  3.2634E-001  
  772.50  3.2619E-001  
  773.00  3.2686E-001  
  773.50  3.2799E-001  
  774.00  3.2962E-001  
  774.50  3.3072E-001  
  775.00  3.2972E-001  
  775.50  3.2902E-001  
  776.00  3.2913E-001  
  776.50  3.2943E-001  
  777.00  3.2893E-001  
  777.50  3.2856E-001  
  778.00  3.2795E-001  
  778.50  3.2759E-001  
  779.00  3.2684E-001  
  779.50  3.2609E-001  
  780.00  3.2662E-001  
  780.50  3.2711E-001  
  781.00  3.2664E-001  
  781.50  3.2566E-001  
  782.00  3.2431E-001  
  782.50  3.2282E-001  
  783.00  3.2200E-001  
  783.50  3.2179E-001  
  784.00  3.2063E-001  
  784.50  3.1838E-001  
  785.00  3.1668E-001  
  785.50  3.1605E-001  
  786.00  3.1569E-001  
  786.50  3.1457E-001  
  787.00  3.1231E-001  
  787.50  3.0990E-001  
  788.00  3.0761E-001  
  788.50  3.0643E-001  
  789.00  3.0385E-001  
  789.50  3.0101E-001  
  790.00  2.9761E-001  
  790.50  2.9499E-001  
  791.00  2.9253E-001  
  791.50  2.9105E-001  
  792.00  2.8895E-001  
  792.50  2.8631E-001  
  793.00  2.8401E-001  
  793.50  2.8047E-001  
  794.00  2.7685E-001  
  794.50  2.7492E-001  
  795.00  2.7425E-001  
  795.50  2.7239E-001  
  796.00  2.6995E-001  
  796.50  2.6813E-001  
  797.00  2.6607E-001  
  797.50  2.6333E-001  
  798.00  2.6050E-001  
  798.50  2.6013E-001  
  799.00  2.6040E-001  
  799.50  2.6034E-001  
  800.00  2.5892E-001  
  800.50  2.5650E-001  
  801.00  2.5463E-001  
  801.50  2.5350E-001  
  802.00  2.5261E-001  
  802.50  2.5120E-001  
  803.00  2.4841E-001  
  803.50  2.4517E-001  
  804.00  2.4132E-001  
  804.50  2.3716E-001  
  805.00  2.3227E-001  
  805.50  2.2786E-001  
  806.00  2.2435E-001  
  806.50  2.2089E-001  
  807.00  2.1854E-001  
  807.50  2.1699E-001  
  808.00  2.1704E-001  
  808.50  2.1776E-001  
  809.00  2.2127E-001  
  809.50  2.2556E-001  
  810.00  2.3096E-001  
  810.50  2.3592E-001  
  811.00  2.4187E-001  
  811.50  2.4732E-001  
  812.00  2.5311E-001  
  812.50  2.5720E-001  
  813.00  2.6205E-001  
  813.50  2.6698E-001  
  814.00  2.7132E-001  
  814.50  2.7534E-001  
  815.00  2.8111E-001  
  815.50  2.8526E-001  
  816.00  2.8776E-001  
  816.50  2.8938E-001  
  817.00  2.9336E-001  
  817.50  2.9751E-001  
  818.00  3.0206E-001  
  818.50  3.0384E-001  
  819.00  3.0488E-001  
  819.50  3.0623E-001  
  820.00  3.0801E-001  
  820.50  3.1062E-001  
  821.00  3.1424E-001  
  821.50  3.1700E-001  
  822.00  3.1854E-001  
  822.50  3.1965E-001  
  823.00  3.1992E-001  
  823.50  3.2205E-001  
  824.00  3.2444E-001  
  824.50  3.2568E-001  
  825.00  3.2814E-001  
  825.50  3.3053E-001  
  826.00  3.3301E-001  
  826.50  3.3339E-001  
  827.00  3.3467E-001  
  827.50  3.3640E-001  
  828.00  3.3931E-001  
  828.50  3.4004E-001  
  829.00  3.3996E-001  
  829.50  3.4118E-001  
  830.00  3.4354E-001  
  830.50  3.4460E-001  
  831.00  3.4393E-001  
  831.50  3.4460E-001  
  832.00  3.4659E-001  
  832.50  3.4797E-001  
  833.00  3.4896E-001  
  833.50  3.5152E-001  
  834.00  3.5406E-001  
  834.50  3.5695E-001  
  835.00  3.5801E-001  
  835.50  3.5710E-001  
  836.00  3.5641E-001  
  836.50  3.5635E-001  
  837.00  3.5624E-001  
  837.50  3.5735E-001  
  838.00  3.5942E-001  
  838.50  3.6220E-001  
  839.00  3.6376E-001  
  839.50  3.6364E-001  
  840.00  3.6332E-001  
  840.50  3.6391E-001  
  841.00  3.6376E-001  
  841.50  3.6149E-001  
  842.00  3.6095E-001  
  842.50  3.6140E-001  
  843.00  3.6194E-001  
  843.50  3.6318E-001  
  844.00  3.6327E-001  
  844.50  3.6308E-001  
  845.00  3.6415E-001  
  845.50  3.6521E-001  
  846.00  3.6681E-001  
  846.50  3.6657E-001  
  847.00  3.6624E-001  
  847.50  3.6681E-001  
  848.00  3.6668E-001  
  848.50  3.6737E-001  
  849.00  3.6771E-001  
  849.50  3.6823E-001  
  850.00  3.6611E-001  
  850.50  3.6642E-001  
  851.00  3.6842E-001  
  851.50  3.6923E-001  
  852.00  3.6836E-001  
  852.50  3.6783E-001  
  853.00  3.6616E-001  
  853.50  3.6389E-001  
  854.00  3.6144E-001  
  854.50  3.6193E-001  
  855.00  3.6264E-001  
  855.50  3.6391E-001  
  856.00  3.6401E-001  
  856.50  3.6299E-001  
  857.00  3.6139E-001  
  857.50  3.5987E-001  
  858.00  3.5700E-001  
  858.50  3.5561E-001  
  859.00  3.5825E-001  
  859.50  3.6030E-001  
  860.00  3.5974E-001  
  860.50  3.5879E-001  
  861.00  3.5949E-001  
  861.50  3.5766E-001  
  862.00  3.5538E-001  
  862.50  3.5475E-001  
  863.00  3.5281E-001  
  863.50  3.5003E-001  
  864.00  3.4915E-001  
  864.50  3.4901E-001  
  865.00  3.4862E-001  
  865.50  3.4941E-001  
  866.00  3.4861E-001  
  866.50  3.4644E-001  
  867.00  3.4556E-001  
  867.50  3.4519E-001  
  868.00  3.4670E-001  
  868.50  3.4837E-001  
  869.00  3.4893E-001  
  869.50  3.4660E-001  
  870.00  3.4657E-001  
  870.50  3.4667E-001  
  871.00  3.4571E-001  
  871.50  3.4709E-001  
  872.00  3.4536E-001  
  872.50  3.4145E-001  
  873.00  3.4250E-001  
  873.50  3.4460E-001  
  874.00  3.4240E-001  
  874.50  3.3838E-001  
  875.00  3.3510E-001  
  875.50  3.3113E-001  
  876.00  3.2735E-001  
  876.50  3.2810E-001  
  877.00  3.2861E-001  
  877.50  3.2986E-001  
  878.00  3.2917E-001  
  878.50  3.2997E-001  
  879.00  3.3221E-001  
  879.50  3.3207E-001  
  880.00  3.2996E-001  
  880.50  3.2880E-001  
  881.00  3.3102E-001  
  881.50  3.3336E-001  
  882.00  3.3433E-001  
  882.50  3.3314E-001  
  883.00  3.3558E-001  
  883.50  3.3941E-001  
  884.00  3.3990E-001  
  884.50  3.3765E-001  
  885.00  3.3770E-001  
  885.50  3.4089E-001  
  886.00  3.4414E-001  
  886.50  3.4144E-001  
  887.00  3.3781E-001  
  887.50  3.4167E-001  
  888.00  3.4816E-001  
  888.50  3.5100E-001  
  889.00  3.5039E-001  
  889.50  3.5147E-001  
  890.00  3.5434E-001  
  890.50  3.5549E-001  
  891.00  3.5560E-001  
  891.50  3.5510E-001  
  892.00  3.5440E-001  
  892.50  3.5343E-001  
  893.00  3.5482E-001  
  893.50  3.5615E-001  
  894.00  3.5727E-001  
  894.50  3.5818E-001  
  895.00  3.5820E-001  
  895.50  3.5996E-001  
  896.00  3.6104E-001  
  896.50  3.5971E-001  
  897.00  3.6008E-001  
  897.50  3.6140E-001  
  898.00  3.6276E-001  
  898.50  3.6667E-001  
  899.00  3.6987E-001  
  899.50  7.3569E-003  
