
# From lspdd.org
# 
# Name: INC Rona domestic-use -
# Indice spectral Valeur 
# MSI 0.30 
# SLI 0.51 
# IPI 0.98 
# Pourcentage de bleu 12.6 
# Caractéristique Valeur 
# CCT calculée (K) 2557 
# CCT du fabricant (K) 2700 
# Tension (V) 120 
# Puissance (W) 150.0 
# Efficacité lumineuse (Lum/W) ND 
#
# Image: '/app/system/img_1s/2771/medium_image1.jpg?1622001366'
# 

  273.00  0.0000E+000  
  273.50  0.0000E+000  
  274.00  0.0000E+000  
  274.50  0.0000E+000  
  275.00  0.0000E+000  
  275.50  0.0000E+000  
  276.00  0.0000E+000  
  276.50  0.0000E+000  
  277.00  0.0000E+000  
  277.50  0.0000E+000  
  278.00  0.0000E+000  
  278.50  0.0000E+000  
  279.00  0.0000E+000  
  279.50  0.0000E+000  
  280.00  0.0000E+000  
  280.50  0.0000E+000  
  281.00  0.0000E+000  
  281.50  0.0000E+000  
  282.00  0.0000E+000  
  282.50  0.0000E+000  
  283.00  0.0000E+000  
  283.50  0.0000E+000  
  284.00  0.0000E+000  
  284.50  0.0000E+000  
  285.00  0.0000E+000  
  285.50  0.0000E+000  
  286.00  0.0000E+000  
  286.50  0.0000E+000  
  287.00  0.0000E+000  
  287.50  0.0000E+000  
  288.00  0.0000E+000  
  288.50  0.0000E+000  
  289.00  0.0000E+000  
  289.50  0.0000E+000  
  290.00  0.0000E+000  
  290.50  0.0000E+000  
  291.00  0.0000E+000  
  291.50  0.0000E+000  
  292.00  0.0000E+000  
  292.50  0.0000E+000  
  293.00  0.0000E+000  
  293.50  0.0000E+000  
  294.00  0.0000E+000  
  294.50  0.0000E+000  
  295.00  0.0000E+000  
  295.50  0.0000E+000  
  296.00  0.0000E+000  
  296.50  0.0000E+000  
  297.00  0.0000E+000  
  297.50  0.0000E+000  
  298.00  0.0000E+000  
  298.50  0.0000E+000  
  299.00  0.0000E+000  
  299.50  0.0000E+000  
  300.00  0.0000E+000  
  300.50  0.0000E+000  
  301.00  3.4630E-005  
  301.50  0.0000E+000  
  302.00  5.2514E-005  
  302.50  6.4670E-005  
  303.00  0.0000E+000  
  303.50  0.0000E+000  
  304.00  0.0000E+000  
  304.50  0.0000E+000  
  305.00  0.0000E+000  
  305.50  0.0000E+000  
  306.00  1.7297E-004  
  306.50  2.8614E-004  
  307.00  3.2497E-004  
  307.50  2.6938E-004  
  308.00  2.0624E-004  
  308.50  8.4027E-005  
  309.00  5.8083E-006  
  309.50  0.0000E+000  
  310.00  0.0000E+000  
  310.50  0.0000E+000  
  311.00  0.0000E+000  
  311.50  0.0000E+000  
  312.00  0.0000E+000  
  312.50  0.0000E+000  
  313.00  0.0000E+000  
  313.50  0.0000E+000  
  314.00  0.0000E+000  
  314.50  1.6705E-005  
  315.00  1.1337E-004  
  315.50  4.9806E-005  
  316.00  1.0213E-004  
  316.50  8.9108E-005  
  317.00  6.3515E-005  
  317.50  1.3512E-004  
  318.00  1.7706E-004  
  318.50  2.3896E-004  
  319.00  3.0953E-004  
  319.50  2.7910E-004  
  320.00  9.1798E-005  
  320.50  0.0000E+000  
  321.00  1.9522E-005  
  321.50  1.8375E-004  
  322.00  3.4216E-004  
  322.50  4.2426E-004  
  323.00  4.2557E-004  
  323.50  3.9154E-004  
  324.00  4.9444E-004  
  324.50  6.0370E-004  
  325.00  5.7195E-004  
  325.50  3.3715E-004  
  326.00  1.8354E-004  
  326.50  4.3739E-005  
  327.00  2.5558E-004  
  327.50  5.7678E-004  
  328.00  8.2688E-004  
  328.50  9.2564E-004  
  329.00  9.4893E-004  
  329.50  7.2682E-004  
  330.00  5.6601E-004  
  330.50  6.5795E-004  
  331.00  7.2726E-004  
  331.50  9.7107E-004  
  332.00  1.1675E-003  
  332.50  1.3615E-003  
  333.00  1.5075E-003  
  333.50  1.5439E-003  
  334.00  1.4429E-003  
  334.50  1.1044E-003  
  335.00  9.9415E-004  
  335.50  1.0608E-003  
  336.00  1.3404E-003  
  336.50  1.5611E-003  
  337.00  1.5073E-003  
  337.50  1.3425E-003  
  338.00  9.3177E-004  
  338.50  9.9227E-004  
  339.00  1.1290E-003  
  339.50  1.1484E-003  
  340.00  1.4096E-003  
  340.50  1.5151E-003  
  341.00  1.6888E-003  
  341.50  1.9209E-003  
  342.00  1.8240E-003  
  342.50  1.6853E-003  
  343.00  1.7183E-003  
  343.50  1.8500E-003  
  344.00  2.1473E-003  
  344.50  2.2738E-003  
  345.00  2.1653E-003  
  345.50  2.1347E-003  
  346.00  2.1510E-003  
  346.50  2.4813E-003  
  347.00  2.6458E-003  
  347.50  2.6284E-003  
  348.00  2.4360E-003  
  348.50  2.1894E-003  
  349.00  2.2199E-003  
  349.50  2.3739E-003  
  350.00  2.5983E-003  
  350.50  2.7013E-003  
  351.00  2.6762E-003  
  351.50  2.8655E-003  
  352.00  2.8786E-003  
  352.50  2.7880E-003  
  353.00  2.7734E-003  
  353.50  2.7309E-003  
  354.00  2.8257E-003  
  354.50  3.0761E-003  
  355.00  3.1261E-003  
  355.50  3.1606E-003  
  356.00  3.3480E-003  
  356.50  3.4177E-003  
  357.00  3.4173E-003  
  357.50  3.3632E-003  
  358.00  3.3008E-003  
  358.50  3.4141E-003  
  359.00  3.6364E-003  
  359.50  3.8900E-003  
  360.00  4.1458E-003  
  360.50  4.1620E-003  
  361.00  4.2439E-003  
  361.50  4.1831E-003  
  362.00  4.0115E-003  
  362.50  3.9246E-003  
  363.00  3.7466E-003  
  363.50  3.6530E-003  
  364.00  3.7280E-003  
  364.50  3.9856E-003  
  365.00  4.2382E-003  
  365.50  4.5103E-003  
  366.00  4.5592E-003  
  366.50  4.4492E-003  
  367.00  4.3733E-003  
  367.50  4.3589E-003  
  368.00  4.4450E-003  
  368.50  4.7288E-003  
  369.00  4.8831E-003  
  369.50  5.0020E-003  
  370.00  5.2040E-003  
  370.50  5.3296E-003  
  371.00  5.5705E-003  
  371.50  5.6558E-003  
  372.00  5.4971E-003  
  372.50  5.4021E-003  
  373.00  5.3911E-003  
  373.50  5.4823E-003  
  374.00  5.6896E-003  
  374.50  5.8107E-003  
  375.00  6.1171E-003  
  375.50  6.5204E-003  
  376.00  6.6757E-003  
  376.50  6.6981E-003  
  377.00  6.6001E-003  
  377.50  6.5611E-003  
  378.00  6.8129E-003  
  378.50  6.9798E-003  
  379.00  7.0714E-003  
  379.50  7.1480E-003  
  380.00  7.1235E-003  
  380.50  7.0908E-003  
  381.00  7.0715E-003  
  381.50  7.0526E-003  
  382.00  7.1259E-003  
  382.50  7.1872E-003  
  383.00  7.3300E-003  
  383.50  7.5842E-003  
  384.00  7.6755E-003  
  384.50  7.8560E-003  
  385.00  8.1312E-003  
  385.50  8.3469E-003  
  386.00  8.6333E-003  
  386.50  8.7174E-003  
  387.00  8.7051E-003  
  387.50  8.7925E-003  
  388.00  9.1071E-003  
  388.50  9.4458E-003  
  389.00  9.6102E-003  
  389.50  9.6434E-003  
  390.00  9.7192E-003  
  390.50  9.8137E-003  
  391.00  9.9821E-003  
  391.50  9.9957E-003  
  392.00  9.9516E-003  
  392.50  1.0146E-002  
  393.00  1.0416E-002  
  393.50  1.0649E-002  
  394.00  1.0740E-002  
  394.50  1.0739E-002  
  395.00  1.0863E-002  
  395.50  1.0975E-002  
  396.00  1.1054E-002  
  396.50  1.1149E-002  
  397.00  1.1221E-002  
  397.50  1.1429E-002  
  398.00  1.1801E-002  
  398.50  1.2104E-002  
  399.00  1.2252E-002  
  399.50  1.2398E-002  
  400.00  1.2586E-002  
  400.50  1.2734E-002  
  401.00  1.3056E-002  
  401.50  1.3117E-002  
  402.00  1.3292E-002  
  402.50  1.3388E-002  
  403.00  1.3494E-002  
  403.50  1.3548E-002  
  404.00  1.3382E-002  
  404.50  1.3430E-002  
  405.00  1.3352E-002  
  405.50  1.3620E-002  
  406.00  1.3996E-002  
  406.50  1.4059E-002  
  407.00  1.4159E-002  
  407.50  1.4353E-002  
  408.00  1.4585E-002  
  408.50  1.5074E-002  
  409.00  1.5525E-002  
  409.50  1.5596E-002  
  410.00  1.5683E-002  
  410.50  1.5769E-002  
  411.00  1.5716E-002  
  411.50  1.5835E-002  
  412.00  1.6199E-002  
  412.50  1.6650E-002  
  413.00  1.7102E-002  
  413.50  1.7380E-002  
  414.00  1.7370E-002  
  414.50  1.7450E-002  
  415.00  1.7599E-002  
  415.50  1.7717E-002  
  416.00  1.7801E-002  
  416.50  1.7748E-002  
  417.00  1.8038E-002  
  417.50  1.8326E-002  
  418.00  1.8561E-002  
  418.50  1.8718E-002  
  419.00  1.8903E-002  
  419.50  1.9045E-002  
  420.00  1.9285E-002  
  420.50  1.9369E-002  
  421.00  1.9429E-002  
  421.50  1.9399E-002  
  422.00  1.9518E-002  
  422.50  1.9661E-002  
  423.00  2.0005E-002  
  423.50  2.0401E-002  
  424.00  2.0590E-002  
  424.50  2.0753E-002  
  425.00  2.0768E-002  
  425.50  2.0935E-002  
  426.00  2.1252E-002  
  426.50  2.1437E-002  
  427.00  2.1510E-002  
  427.50  2.1771E-002  
  428.00  2.2132E-002  
  428.50  2.2807E-002  
  429.00  2.3217E-002  
  429.50  2.3236E-002  
  430.00  2.3131E-002  
  430.50  2.3104E-002  
  431.00  2.3290E-002  
  431.50  2.3836E-002  
  432.00  2.4341E-002  
  432.50  2.4573E-002  
  433.00  2.4679E-002  
  433.50  2.4923E-002  
  434.00  2.5667E-002  
  434.50  2.6322E-002  
  435.00  2.6613E-002  
  435.50  2.6542E-002  
  436.00  2.6551E-002  
  436.50  2.6619E-002  
  437.00  2.6803E-002  
  437.50  2.6724E-002  
  438.00  2.6592E-002  
  438.50  2.6892E-002  
  439.00  2.7275E-002  
  439.50  2.7709E-002  
  440.00  2.8172E-002  
  440.50  2.8529E-002  
  441.00  2.8857E-002  
  441.50  2.9323E-002  
  442.00  2.9480E-002  
  442.50  2.9548E-002  
  443.00  2.9633E-002  
  443.50  2.9628E-002  
  444.00  2.9828E-002  
  444.50  2.9983E-002  
  445.00  3.0149E-002  
  445.50  3.0513E-002  
  446.00  3.0902E-002  
  446.50  3.1277E-002  
  447.00  3.1579E-002  
  447.50  3.1793E-002  
  448.00  3.2252E-002  
  448.50  3.2766E-002  
  449.00  3.2997E-002  
  449.50  3.3029E-002  
  450.00  3.2812E-002  
  450.50  3.2936E-002  
  451.00  3.3281E-002  
  451.50  3.3771E-002  
  452.00  3.4141E-002  
  452.50  3.4366E-002  
  453.00  3.4857E-002  
  453.50  3.5215E-002  
  454.00  3.5674E-002  
  454.50  3.5852E-002  
  455.00  3.5901E-002  
  455.50  3.6227E-002  
  456.00  3.6769E-002  
  456.50  3.7115E-002  
  457.00  3.7532E-002  
  457.50  3.7732E-002  
  458.00  3.8000E-002  
  458.50  3.8422E-002  
  459.00  3.8706E-002  
  459.50  3.8953E-002  
  460.00  3.9204E-002  
  460.50  3.9279E-002  
  461.00  3.9630E-002  
  461.50  4.0119E-002  
  462.00  4.0610E-002  
  462.50  4.1070E-002  
  463.00  4.1556E-002  
  463.50  4.1752E-002  
  464.00  4.2254E-002  
  464.50  4.2637E-002  
  465.00  4.3114E-002  
  465.50  4.3394E-002  
  466.00  4.3587E-002  
  466.50  4.3712E-002  
  467.00  4.4055E-002  
  467.50  4.4658E-002  
  468.00  4.5221E-002  
  468.50  4.5860E-002  
  469.00  4.6491E-002  
  469.50  4.7003E-002  
  470.00  4.7639E-002  
  470.50  4.8067E-002  
  471.00  4.8510E-002  
  471.50  4.8955E-002  
  472.00  4.9285E-002  
  472.50  4.9365E-002  
  473.00  4.9454E-002  
  473.50  4.9517E-002  
  474.00  5.0000E-002  
  474.50  5.0690E-002  
  475.00  5.1060E-002  
  475.50  5.1443E-002  
  476.00  5.1354E-002  
  476.50  5.1516E-002  
  477.00  5.1967E-002  
  477.50  5.2366E-002  
  478.00  5.2993E-002  
  478.50  5.3365E-002  
  479.00  5.3831E-002  
  479.50  5.4254E-002  
  480.00  5.4780E-002  
  480.50  5.4991E-002  
  481.00  5.4963E-002  
  481.50  5.5169E-002  
  482.00  5.5504E-002  
  482.50  5.5929E-002  
  483.00  5.6198E-002  
  483.50  5.6312E-002  
  484.00  5.6603E-002  
  484.50  5.6736E-002  
  485.00  5.6893E-002  
  485.50  5.7005E-002  
  486.00  5.7253E-002  
  486.50  5.7659E-002  
  487.00  5.7859E-002  
  487.50  5.7943E-002  
  488.00  5.8098E-002  
  488.50  5.8335E-002  
  489.00  5.8420E-002  
  489.50  5.8559E-002  
  490.00  5.8629E-002  
  490.50  5.8777E-002  
  491.00  5.9119E-002  
  491.50  5.9331E-002  
  492.00  5.9619E-002  
  492.50  5.9905E-002  
  493.00  6.0031E-002  
  493.50  6.0097E-002  
  494.00  6.0002E-002  
  494.50  6.0096E-002  
  495.00  6.0459E-002  
  495.50  6.1094E-002  
  496.00  6.1602E-002  
  496.50  6.1818E-002  
  497.00  6.2026E-002  
  497.50  6.2296E-002  
  498.00  6.2730E-002  
  498.50  6.3204E-002  
  499.00  6.3494E-002  
  499.50  6.3773E-002  
  500.00  6.3928E-002  
  500.50  6.4223E-002  
  501.00  6.4522E-002  
  501.50  6.4954E-002  
  502.00  6.5295E-002  
  502.50  6.5637E-002  
  503.00  6.6067E-002  
  503.50  6.6406E-002  
  504.00  6.6680E-002  
  504.50  6.6889E-002  
  505.00  6.7182E-002  
  505.50  6.7543E-002  
  506.00  6.7957E-002  
  506.50  6.8297E-002  
  507.00  6.8545E-002  
  507.50  6.8979E-002  
  508.00  6.9461E-002  
  508.50  7.0057E-002  
  509.00  7.0545E-002  
  509.50  7.0865E-002  
  510.00  7.1325E-002  
  510.50  7.1683E-002  
  511.00  7.2112E-002  
  511.50  7.2439E-002  
  512.00  7.2814E-002  
  512.50  7.3199E-002  
  513.00  7.3525E-002  
  513.50  7.3741E-002  
  514.00  7.3966E-002  
  514.50  7.4380E-002  
  515.00  7.4872E-002  
  515.50  7.5490E-002  
  516.00  7.5827E-002  
  516.50  7.6281E-002  
  517.00  7.6722E-002  
  517.50  7.7163E-002  
  518.00  7.7737E-002  
  518.50  7.8142E-002  
  519.00  7.8802E-002  
  519.50  7.9298E-002  
  520.00  7.9713E-002  
  520.50  8.0176E-002  
  521.00  8.0806E-002  
  521.50  8.1429E-002  
  522.00  8.1855E-002  
  522.50  8.2137E-002  
  523.00  8.2645E-002  
  523.50  8.3250E-002  
  524.00  8.3758E-002  
  524.50  8.4249E-002  
  525.00  8.4948E-002  
  525.50  8.5577E-002  
  526.00  8.6286E-002  
  526.50  8.6792E-002  
  527.00  8.7374E-002  
  527.50  8.7981E-002  
  528.00  8.8394E-002  
  528.50  8.8937E-002  
  529.00  8.9388E-002  
  529.50  8.9792E-002  
  530.00  9.0362E-002  
  530.50  9.1070E-002  
  531.00  9.1824E-002  
  531.50  9.2501E-002  
  532.00  9.2956E-002  
  532.50  9.3469E-002  
  533.00  9.3900E-002  
  533.50  9.4253E-002  
  534.00  9.4611E-002  
  534.50  9.5363E-002  
  535.00  9.6133E-002  
  535.50  9.6907E-002  
  536.00  9.7482E-002  
  536.50  9.8263E-002  
  537.00  9.9119E-002  
  537.50  9.9857E-002  
  538.00  1.0045E-001  
  538.50  1.0072E-001  
  539.00  1.0138E-001  
  539.50  1.0199E-001  
  540.00  1.0279E-001  
  540.50  1.0348E-001  
  541.00  1.0421E-001  
  541.50  1.0500E-001  
  542.00  1.0561E-001  
  542.50  1.0610E-001  
  543.00  1.0672E-001  
  543.50  1.0744E-001  
  544.00  1.0832E-001  
  544.50  1.0905E-001  
  545.00  1.0963E-001  
  545.50  1.1028E-001  
  546.00  1.1074E-001  
  546.50  1.1107E-001  
  547.00  1.1161E-001  
  547.50  1.1213E-001  
  548.00  1.1290E-001  
  548.50  1.1389E-001  
  549.00  1.1512E-001  
  549.50  1.1609E-001  
  550.00  1.1686E-001  
  550.50  1.1759E-001  
  551.00  1.1847E-001  
  551.50  1.1905E-001  
  552.00  1.1937E-001  
  552.50  1.1958E-001  
  553.00  1.2031E-001  
  553.50  1.2111E-001  
  554.00  1.2191E-001  
  554.50  1.2261E-001  
  555.00  1.2310E-001  
  555.50  1.2364E-001  
  556.00  1.2420E-001  
  556.50  1.2487E-001  
  557.00  1.2583E-001  
  557.50  1.2681E-001  
  558.00  1.2755E-001  
  558.50  1.2809E-001  
  559.00  1.2860E-001  
  559.50  1.2934E-001  
  560.00  1.3042E-001  
  560.50  1.3109E-001  
  561.00  1.3192E-001  
  561.50  1.3267E-001  
  562.00  1.3319E-001  
  562.50  1.3396E-001  
  563.00  1.3454E-001  
  563.50  1.3538E-001  
  564.00  1.3599E-001  
  564.50  1.3658E-001  
  565.00  1.3742E-001  
  565.50  1.3831E-001  
  566.00  1.3884E-001  
  566.50  1.3921E-001  
  567.00  1.3966E-001  
  567.50  1.4043E-001  
  568.00  1.4109E-001  
  568.50  1.4146E-001  
  569.00  1.4184E-001  
  569.50  1.4238E-001  
  570.00  1.4317E-001  
  570.50  1.4390E-001  
  571.00  1.4455E-001  
  571.50  1.4528E-001  
  572.00  1.4612E-001  
  572.50  1.4730E-001  
  573.00  1.4817E-001  
  573.50  1.4883E-001  
  574.00  1.4913E-001  
  574.50  1.4946E-001  
  575.00  1.5001E-001  
  575.50  1.5078E-001  
  576.00  1.5164E-001  
  576.50  1.5260E-001  
  577.00  1.5350E-001  
  577.50  1.5405E-001  
  578.00  1.5450E-001  
  578.50  1.5512E-001  
  579.00  1.5584E-001  
  579.50  1.5666E-001  
  580.00  1.5728E-001  
  580.50  1.5776E-001  
  581.00  1.5846E-001  
  581.50  1.5904E-001  
  582.00  1.5948E-001  
  582.50  1.5956E-001  
  583.00  1.5978E-001  
  583.50  1.6054E-001  
  584.00  1.6170E-001  
  584.50  1.6292E-001  
  585.00  1.6378E-001  
  585.50  1.6421E-001  
  586.00  1.6481E-001  
  586.50  1.6516E-001  
  587.00  1.6557E-001  
  587.50  1.6627E-001  
  588.00  1.6679E-001  
  588.50  1.6776E-001  
  589.00  1.6827E-001  
  589.50  1.6887E-001  
  590.00  1.6939E-001  
  590.50  1.7013E-001  
  591.00  1.7092E-001  
  591.50  1.7173E-001  
  592.00  1.7253E-001  
  592.50  1.7326E-001  
  593.00  1.7392E-001  
  593.50  1.7431E-001  
  594.00  1.7473E-001  
  594.50  1.7536E-001  
  595.00  1.7587E-001  
  595.50  1.7623E-001  
  596.00  1.7648E-001  
  596.50  1.7690E-001  
  597.00  1.7787E-001  
  597.50  1.7868E-001  
  598.00  1.7913E-001  
  598.50  1.7943E-001  
  599.00  1.8003E-001  
  599.50  1.8099E-001  
  600.00  1.8189E-001  
  600.50  1.8253E-001  
  601.00  1.8301E-001  
  601.50  1.8321E-001  
  602.00  1.8331E-001  
  602.50  1.8367E-001  
  603.00  1.8411E-001  
  603.50  1.8445E-001  
  604.00  1.8487E-001  
  604.50  1.8538E-001  
  605.00  1.8629E-001  
  605.50  1.8718E-001  
  606.00  1.8763E-001  
  606.50  1.8843E-001  
  607.00  1.8925E-001  
  607.50  1.9011E-001  
  608.00  1.9083E-001  
  608.50  1.9134E-001  
  609.00  1.9199E-001  
  609.50  1.9217E-001  
  610.00  1.9220E-001  
  610.50  1.9246E-001  
  611.00  1.9311E-001  
  611.50  1.9399E-001  
  612.00  1.9475E-001  
  612.50  1.9489E-001  
  613.00  1.9517E-001  
  613.50  1.9546E-001  
  614.00  1.9647E-001  
  614.50  1.9749E-001  
  615.00  1.9810E-001  
  615.50  1.9867E-001  
  616.00  1.9872E-001  
  616.50  1.9901E-001  
  617.00  1.9927E-001  
  617.50  1.9986E-001  
  618.00  2.0039E-001  
  618.50  2.0079E-001  
  619.00  2.0109E-001  
  619.50  2.0138E-001  
  620.00  2.0179E-001  
  620.50  2.0210E-001  
  621.00  2.0247E-001  
  621.50  2.0300E-001  
  622.00  2.0343E-001  
  622.50  2.0383E-001  
  623.00  2.0380E-001  
  623.50  2.0385E-001  
  624.00  2.0420E-001  
  624.50  2.0467E-001  
  625.00  2.0531E-001  
  625.50  2.0586E-001  
  626.00  2.0662E-001  
  626.50  2.0750E-001  
  627.00  2.0800E-001  
  627.50  2.0823E-001  
  628.00  2.0824E-001  
  628.50  2.0879E-001  
  629.00  2.0949E-001  
  629.50  2.1016E-001  
  630.00  2.1056E-001  
  630.50  2.1082E-001  
  631.00  2.1135E-001  
  631.50  2.1190E-001  
  632.00  2.1258E-001  
  632.50  2.1295E-001  
  633.00  2.1316E-001  
  633.50  2.1334E-001  
  634.00  2.1374E-001  
  634.50  2.1437E-001  
  635.00  2.1521E-001  
  635.50  2.1587E-001  
  636.00  2.1642E-001  
  636.50  2.1697E-001  
  637.00  2.1723E-001  
  637.50  2.1742E-001  
  638.00  2.1740E-001  
  638.50  2.1807E-001  
  639.00  2.1900E-001  
  639.50  2.1981E-001  
  640.00  2.2069E-001  
  640.50  2.2124E-001  
  641.00  2.2185E-001  
  641.50  2.2175E-001  
  642.00  2.2186E-001  
  642.50  2.2209E-001  
  643.00  2.2268E-001  
  643.50  2.2330E-001  
  644.00  2.2382E-001  
  644.50  2.2422E-001  
  645.00  2.2455E-001  
  645.50  2.2464E-001  
  646.00  2.2455E-001  
  646.50  2.2497E-001  
  647.00  2.2592E-001  
  647.50  2.2685E-001  
  648.00  2.2731E-001  
  648.50  2.2762E-001  
  649.00  2.2815E-001  
  649.50  2.2894E-001  
  650.00  2.2956E-001  
  650.50  2.3009E-001  
  651.00  2.2991E-001  
  651.50  2.2978E-001  
  652.00  2.3013E-001  
  652.50  2.3070E-001  
  653.00  2.3138E-001  
  653.50  2.3145E-001  
  654.00  2.3214E-001  
  654.50  2.3251E-001  
  655.00  2.3287E-001  
  655.50  2.3290E-001  
  656.00  2.3361E-001  
  656.50  2.3450E-001  
  657.00  2.3433E-001  
  657.50  2.3371E-001  
  658.00  2.3316E-001  
  658.50  2.3388E-001  
  659.00  2.3454E-001  
  659.50  2.3521E-001  
  660.00  2.3602E-001  
  660.50  2.3653E-001  
  661.00  2.3685E-001  
  661.50  2.3653E-001  
  662.00  2.3646E-001  
  662.50  2.3697E-001  
  663.00  2.3786E-001  
  663.50  2.3880E-001  
  664.00  2.3855E-001  
  664.50  2.3808E-001  
  665.00  2.3839E-001  
  665.50  2.3927E-001  
  666.00  2.3936E-001  
  666.50  2.3930E-001  
  667.00  2.3907E-001  
  667.50  2.3908E-001  
  668.00  2.3904E-001  
  668.50  2.3967E-001  
  669.00  2.4075E-001  
  669.50  2.4132E-001  
  670.00  2.4103E-001  
  670.50  2.4126E-001  
  671.00  2.4154E-001  
  671.50  2.4175E-001  
  672.00  2.4167E-001  
  672.50  2.4219E-001  
  673.00  2.4340E-001  
  673.50  2.4354E-001  
  674.00  2.4279E-001  
  674.50  2.4214E-001  
  675.00  2.4254E-001  
  675.50  2.4347E-001  
  676.00  2.4411E-001  
  676.50  2.4384E-001  
  677.00  2.4348E-001  
  677.50  2.4352E-001  
  678.00  2.4385E-001  
  678.50  2.4381E-001  
  679.00  2.4381E-001  
  679.50  2.4431E-001  
  680.00  2.4500E-001  
  680.50  2.4541E-001  
  681.00  2.4557E-001  
  681.50  2.4538E-001  
  682.00  2.4588E-001  
  682.50  2.4615E-001  
  683.00  2.4690E-001  
  683.50  2.4681E-001  
  684.00  2.4621E-001  
  684.50  2.4532E-001  
  685.00  2.4470E-001  
  685.50  2.4524E-001  
  686.00  2.4583E-001  
  686.50  2.4653E-001  
  687.00  2.4707E-001  
  687.50  2.4749E-001  
  688.00  2.4744E-001  
  688.50  2.4700E-001  
  689.00  2.4685E-001  
  689.50  2.4744E-001  
  690.00  2.4895E-001  
  690.50  2.5033E-001  
  691.00  2.5045E-001  
  691.50  2.4967E-001  
  692.00  2.4898E-001  
  692.50  2.4902E-001  
  693.00  2.4871E-001  
  693.50  2.4881E-001  
  694.00  2.4933E-001  
  694.50  2.4966E-001  
  695.00  2.4952E-001  
  695.50  2.4956E-001  
  696.00  2.5041E-001  
  696.50  2.5124E-001  
  697.00  2.5176E-001  
  697.50  2.5193E-001  
  698.00  2.5172E-001  
  698.50  2.5116E-001  
  699.00  2.5107E-001  
  699.50  2.5157E-001  
  700.00  2.5223E-001  
  700.50  2.5173E-001  
  701.00  2.5173E-001  
  701.50  2.5246E-001  
  702.00  2.5372E-001  
  702.50  2.5412E-001  
  703.00  2.5401E-001  
  703.50  2.5420E-001  
  704.00  2.5443E-001  
  704.50  2.5438E-001  
  705.00  2.5456E-001  
  705.50  2.5468E-001  
  706.00  2.5455E-001  
  706.50  2.5388E-001  
  707.00  2.5384E-001  
  707.50  2.5435E-001  
  708.00  2.5505E-001  
  708.50  2.5558E-001  
  709.00  2.5564E-001  
  709.50  2.5569E-001  
  710.00  2.5586E-001  
  710.50  2.5649E-001  
  711.00  2.5684E-001  
  711.50  2.5685E-001  
  712.00  2.5700E-001  
  712.50  2.5712E-001  
  713.00  2.5724E-001  
  713.50  2.5754E-001  
  714.00  2.5754E-001  
  714.50  2.5761E-001  
  715.00  2.5732E-001  
  715.50  2.5778E-001  
  716.00  2.5850E-001  
  716.50  2.5882E-001  
  717.00  2.5817E-001  
  717.50  2.5806E-001  
  718.00  2.5836E-001  
  718.50  2.5883E-001  
  719.00  2.5931E-001  
  719.50  2.5986E-001  
  720.00  2.5955E-001  
  720.50  2.5886E-001  
  721.00  2.5859E-001  
  721.50  2.5919E-001  
  722.00  2.5944E-001  
  722.50  2.5950E-001  
  723.00  2.5985E-001  
  723.50  2.6089E-001  
  724.00  2.6147E-001  
  724.50  2.6103E-001  
  725.00  2.6003E-001  
  725.50  2.5963E-001  
  726.00  2.5934E-001  
  726.50  2.5952E-001  
  727.00  2.6007E-001  
  727.50  2.6086E-001  
  728.00  2.6113E-001  
  728.50  2.6148E-001  
  729.00  2.6208E-001  
  729.50  2.6219E-001  
  730.00  2.6237E-001  
  730.50  2.6286E-001  
  731.00  2.6312E-001  
  731.50  2.6286E-001  
  732.00  2.6288E-001  
  732.50  2.6371E-001  
  733.00  2.6486E-001  
  733.50  2.6549E-001  
  734.00  2.6606E-001  
  734.50  2.6632E-001  
  735.00  2.6617E-001  
  735.50  2.6558E-001  
  736.00  2.6554E-001  
  736.50  2.6622E-001  
  737.00  2.6642E-001  
  737.50  2.6643E-001  
  738.00  2.6615E-001  
  738.50  2.6677E-001  
  739.00  2.6682E-001  
  739.50  2.6657E-001  
  740.00  2.6584E-001  
  740.50  2.6554E-001  
  741.00  2.6536E-001  
  741.50  2.6570E-001  
  742.00  2.6646E-001  
  742.50  2.6666E-001  
  743.00  2.6653E-001  
  743.50  2.6648E-001  
  744.00  2.6719E-001  
  744.50  2.6804E-001  
  745.00  2.6830E-001  
  745.50  2.6842E-001  
  746.00  2.6770E-001  
  746.50  2.6763E-001  
  747.00  2.6823E-001  
  747.50  2.6978E-001  
  748.00  2.6956E-001  
  748.50  2.6918E-001  
  749.00  2.6873E-001  
  749.50  2.6950E-001  
  750.00  2.7036E-001  
  750.50  2.7138E-001  
  751.00  2.7205E-001  
  751.50  2.7229E-001  
  752.00  2.7248E-001  
  752.50  2.7270E-001  
  753.00  2.7275E-001  
  753.50  2.7164E-001  
  754.00  2.7129E-001  
  754.50  2.7184E-001  
  755.00  2.7317E-001  
  755.50  2.7251E-001  
  756.00  2.7144E-001  
  756.50  2.7101E-001  
  757.00  2.7241E-001  
  757.50  2.7355E-001  
  758.00  2.7396E-001  
  758.50  2.7420E-001  
  759.00  2.7423E-001  
  759.50  2.7459E-001  
  760.00  2.7357E-001  
  760.50  2.7314E-001  
  761.00  2.7202E-001  
  761.50  2.7183E-001  
  762.00  2.7217E-001  
  762.50  2.7279E-001  
  763.00  2.7334E-001  
  763.50  2.7346E-001  
  764.00  2.7418E-001  
  764.50  2.7482E-001  
  765.00  2.7603E-001  
  765.50  2.7731E-001  
  766.00  2.7779E-001  
  766.50  2.7692E-001  
  767.00  2.7632E-001  
  767.50  2.7664E-001  
  768.00  2.7809E-001  
  768.50  2.7886E-001  
  769.00  2.7801E-001  
  769.50  2.7624E-001  
  770.00  2.7560E-001  
  770.50  2.7687E-001  
  771.00  2.7775E-001  
  771.50  2.7768E-001  
  772.00  2.7702E-001  
  772.50  2.7722E-001  
  773.00  2.7764E-001  
  773.50  2.7805E-001  
  774.00  2.7845E-001  
  774.50  2.7887E-001  
  775.00  2.7764E-001  
  775.50  2.7545E-001  
  776.00  2.7459E-001  
  776.50  2.7523E-001  
  777.00  2.7611E-001  
  777.50  2.7653E-001  
  778.00  2.7765E-001  
  778.50  2.7895E-001  
  779.00  2.8009E-001  
  779.50  2.8009E-001  
  780.00  2.8037E-001  
  780.50  2.8068E-001  
  781.00  2.8100E-001  
  781.50  2.8133E-001  
  782.00  2.8124E-001  
  782.50  2.8148E-001  
  783.00  2.8088E-001  
  783.50  2.8072E-001  
  784.00  2.8141E-001  
  784.50  2.8196E-001  
  785.00  2.8145E-001  
  785.50  2.8073E-001  
  786.00  2.8061E-001  
  786.50  2.8078E-001  
  787.00  2.8118E-001  
  787.50  2.8125E-001  
  788.00  2.8163E-001  
  788.50  2.8245E-001  
  789.00  2.8369E-001  
  789.50  2.8488E-001  
  790.00  2.8532E-001  
  790.50  2.8562E-001  
  791.00  2.8504E-001  
  791.50  2.8443E-001  
  792.00  2.8414E-001  
  792.50  2.8497E-001  
  793.00  2.8652E-001  
  793.50  2.8678E-001  
  794.00  2.8593E-001  
  794.50  2.8558E-001  
  795.00  2.8659E-001  
  795.50  2.8752E-001  
  796.00  2.8765E-001  
  796.50  2.8725E-001  
  797.00  2.8843E-001  
  797.50  2.8870E-001  
  798.00  2.8837E-001  
  798.50  2.8818E-001  
  799.00  2.8680E-001  
  799.50  2.8605E-001  
  800.00  2.8697E-001  
  800.50  2.8832E-001  
  801.00  2.8864E-001  
  801.50  2.8755E-001  
  802.00  2.8722E-001  
  802.50  2.8813E-001  
  803.00  2.8947E-001  
  803.50  2.9066E-001  
  804.00  2.9118E-001  
  804.50  2.9057E-001  
  805.00  2.8986E-001  
  805.50  2.8983E-001  
  806.00  2.9058E-001  
  806.50  2.9108E-001  
  807.00  2.9079E-001  
  807.50  2.8993E-001  
  808.00  2.9077E-001  
  808.50  2.9130E-001  
  809.00  2.9222E-001  
  809.50  2.9130E-001  
  810.00  2.9086E-001  
  810.50  2.9079E-001  
  811.00  2.9222E-001  
  811.50  2.9197E-001  
  812.00  2.9284E-001  
  812.50  2.9343E-001  
  813.00  2.9442E-001  
  813.50  2.9451E-001  
  814.00  2.9442E-001  
  814.50  2.9455E-001  
  815.00  2.9481E-001  
  815.50  2.9357E-001  
  816.00  2.9219E-001  
  816.50  2.9109E-001  
  817.00  2.9093E-001  
  817.50  2.9223E-001  
  818.00  2.9561E-001  
  818.50  2.9616E-001  
  819.00  2.9493E-001  
  819.50  2.9451E-001  
  820.00  2.9506E-001  
  820.50  2.9526E-001  
  821.00  2.9559E-001  
  821.50  2.9533E-001  
  822.00  2.9592E-001  
  822.50  2.9578E-001  
  823.00  2.9449E-001  
  823.50  2.9597E-001  
  824.00  2.9870E-001  
  824.50  2.9924E-001  
  825.00  2.9866E-001  
  825.50  2.9675E-001  
  826.00  2.9695E-001  
  826.50  2.9700E-001  
  827.00  2.9770E-001  
  827.50  2.9732E-001  
  828.00  2.9750E-001  
  828.50  2.9722E-001  
  829.00  2.9710E-001  
  829.50  2.9774E-001  
  830.00  2.9862E-001  
  830.50  2.9849E-001  
  831.00  2.9854E-001  
  831.50  3.0027E-001  
  832.00  3.0158E-001  
  832.50  3.0185E-001  
  833.00  3.0267E-001  
  833.50  3.0171E-001  
  834.00  2.9990E-001  
  834.50  3.0016E-001  
  835.00  3.0141E-001  
  835.50  3.0312E-001  
  836.00  3.0223E-001  
  836.50  3.0144E-001  
  837.00  3.0098E-001  
  837.50  3.0049E-001  
  838.00  3.0075E-001  
  838.50  3.0192E-001  
  839.00  3.0278E-001  
  839.50  3.0333E-001  
  840.00  3.0344E-001  
  840.50  3.0436E-001  
  841.00  3.0296E-001  
  841.50  3.0089E-001  
  842.00  3.0104E-001  
  842.50  3.0050E-001  
  843.00  3.0133E-001  
  843.50  3.0237E-001  
  844.00  3.0330E-001  
  844.50  3.0243E-001  
  845.00  3.0351E-001  
  845.50  3.0511E-001  
  846.00  3.0618E-001  
  846.50  3.0529E-001  
  847.00  3.0489E-001  
  847.50  3.0535E-001  
  848.00  3.0608E-001  
  848.50  3.0655E-001  
  849.00  3.0645E-001  
  849.50  3.0711E-001  
  850.00  3.0773E-001  
  850.50  3.0888E-001  
  851.00  3.1099E-001  
  851.50  3.1050E-001  
  852.00  3.0987E-001  
  852.50  3.0867E-001  
  853.00  3.0648E-001  
  853.50  3.0460E-001  
  854.00  3.0490E-001  
  854.50  3.0660E-001  
  855.00  3.0666E-001  
  855.50  3.0756E-001  
  856.00  3.0767E-001  
  856.50  3.0724E-001  
  857.00  3.0790E-001  
  857.50  3.0757E-001  
  858.00  3.0668E-001  
  858.50  3.0592E-001  
  859.00  3.0892E-001  
  859.50  3.1081E-001  
  860.00  3.1148E-001  
  860.50  3.1013E-001  
  861.00  3.0943E-001  
  861.50  3.0754E-001  
  862.00  3.0787E-001  
  862.50  3.1022E-001  
  863.00  3.1137E-001  
  863.50  3.1048E-001  
  864.00  3.0804E-001  
  864.50  3.0650E-001  
  865.00  3.0845E-001  
  865.50  3.1238E-001  
  866.00  3.1134E-001  
  866.50  3.1048E-001  
  867.00  3.1037E-001  
  867.50  3.1013E-001  
  868.00  3.0878E-001  
  868.50  3.0938E-001  
  869.00  3.1211E-001  
  869.50  3.1298E-001  
  870.00  3.1303E-001  
  870.50  3.0965E-001  
  871.00  3.0714E-001  
  871.50  3.1244E-001  
  872.00  3.1262E-001  
  872.50  3.1078E-001  
  873.00  3.1005E-001  
  873.50  3.0894E-001  
  874.00  3.0799E-001  
  874.50  3.0852E-001  
  875.00  3.0763E-001  
  875.50  3.0823E-001  
  876.00  3.0908E-001  
  876.50  3.1039E-001  
  877.00  3.1091E-001  
  877.50  3.1253E-001  
  878.00  3.1406E-001  
  878.50  3.1406E-001  
  879.00  3.1602E-001  
  879.50  3.1736E-001  
  880.00  3.1150E-001  
  880.50  3.0645E-001  
  881.00  3.0780E-001  
  881.50  3.1135E-001  
  882.00  3.1050E-001  
  882.50  3.0795E-001  
  883.00  3.1182E-001  
  883.50  3.1499E-001  
  884.00  3.1196E-001  
  884.50  3.0920E-001  
  885.00  3.1063E-001  
  885.50  3.1296E-001  
  886.00  3.1237E-001  
  886.50  3.0899E-001  
  887.00  3.0810E-001  
  887.50  3.0946E-001  
  888.00  3.1135E-001  
  888.50  3.0952E-001  
  889.00  3.0824E-001  
  889.50  3.1103E-001  
  890.00  3.1279E-001  
  890.50  3.1172E-001  
  891.00  3.1249E-001  
  891.50  3.1247E-001  
  892.00  3.1254E-001  
  892.50  3.1086E-001  
  893.00  3.0902E-001  
  893.50  3.1123E-001  
  894.00  3.1349E-001  
  894.50  3.1322E-001  
  895.00  3.1279E-001  
  895.50  3.1279E-001  
  896.00  3.1200E-001  
  896.50  3.1066E-001  
  897.00  3.1230E-001  
  897.50  3.1420E-001  
  898.00  3.1336E-001  
  898.50  3.1453E-001  
  899.00  3.1523E-001  
  899.50  6.2376E-003  
