
# From lspdd.org
# 
# Name: INC Noma A19 -
# Indice spectral Valeur 
# MSI 0.07 
# SLI 0.23 
# IPI 1.24 
# Pourcentage de bleu 1.7 
# Caractéristique Valeur 
# CCT calculée (K) 1609 
# CCT du fabricant (K) 1800 
# Tension (V) 130 
# Puissance (W) 60.0 
# Efficacité lumineuse (Lum/W) ND 
#
# Image: '/app/system/img_1s/2773/medium_image1.jpg?1622001367'
# 

  273.00  0.0000E+000  
  273.50  0.0000E+000  
  274.00  0.0000E+000  
  274.50  0.0000E+000  
  275.00  0.0000E+000  
  275.50  0.0000E+000  
  276.00  0.0000E+000  
  276.50  0.0000E+000  
  277.00  0.0000E+000  
  277.50  0.0000E+000  
  278.00  0.0000E+000  
  278.50  0.0000E+000  
  279.00  0.0000E+000  
  279.50  0.0000E+000  
  280.00  0.0000E+000  
  280.50  0.0000E+000  
  281.00  0.0000E+000  
  281.50  0.0000E+000  
  282.00  0.0000E+000  
  282.50  0.0000E+000  
  283.00  0.0000E+000  
  283.50  0.0000E+000  
  284.00  0.0000E+000  
  284.50  0.0000E+000  
  285.00  0.0000E+000  
  285.50  0.0000E+000  
  286.00  0.0000E+000  
  286.50  0.0000E+000  
  287.00  0.0000E+000  
  287.50  0.0000E+000  
  288.00  0.0000E+000  
  288.50  0.0000E+000  
  289.00  0.0000E+000  
  289.50  0.0000E+000  
  290.00  0.0000E+000  
  290.50  0.0000E+000  
  291.00  0.0000E+000  
  291.50  0.0000E+000  
  292.00  0.0000E+000  
  292.50  0.0000E+000  
  293.00  0.0000E+000  
  293.50  0.0000E+000  
  294.00  0.0000E+000  
  294.50  0.0000E+000  
  295.00  0.0000E+000  
  295.50  0.0000E+000  
  296.00  0.0000E+000  
  296.50  0.0000E+000  
  297.00  0.0000E+000  
  297.50  0.0000E+000  
  298.00  0.0000E+000  
  298.50  0.0000E+000  
  299.00  0.0000E+000  
  299.50  0.0000E+000  
  300.00  3.4504E-005  
  300.50  1.5427E-004  
  301.00  3.5476E-004  
  301.50  2.8288E-004  
  302.00  7.9734E-005  
  302.50  3.5883E-006  
  303.00  0.0000E+000  
  303.50  0.0000E+000  
  304.00  0.0000E+000  
  304.50  2.1764E-004  
  305.00  5.1894E-004  
  305.50  5.6611E-004  
  306.00  4.3158E-004  
  306.50  1.8403E-004  
  307.00  1.2501E-004  
  307.50  3.2629E-004  
  308.00  5.7763E-004  
  308.50  7.9355E-004  
  309.00  7.8699E-004  
  309.50  8.0678E-004  
  310.00  7.4166E-004  
  310.50  7.6197E-004  
  311.00  6.4669E-004  
  311.50  4.3551E-004  
  312.00  4.5390E-004  
  312.50  3.6211E-004  
  313.00  5.4280E-004  
  313.50  4.8689E-004  
  314.00  2.5821E-004  
  314.50  1.4041E-004  
  315.00  1.1614E-004  
  315.50  3.6049E-004  
  316.00  5.0153E-004  
  316.50  6.0039E-004  
  317.00  4.0231E-004  
  317.50  2.4579E-004  
  318.00  7.3594E-005  
  318.50  0.0000E+000  
  319.00  2.5672E-004  
  319.50  4.5702E-004  
  320.00  5.5775E-004  
  320.50  5.3184E-004  
  321.00  2.0696E-004  
  321.50  6.3485E-005  
  322.00  2.3307E-004  
  322.50  3.4190E-004  
  323.00  3.1280E-004  
  323.50  1.4227E-004  
  324.00  5.1927E-005  
  324.50  2.3505E-004  
  325.00  4.3889E-004  
  325.50  7.2380E-004  
  326.00  5.6484E-004  
  326.50  1.8859E-004  
  327.00  9.8512E-005  
  327.50  5.7207E-006  
  328.00  0.0000E+000  
  328.50  0.0000E+000  
  329.00  0.0000E+000  
  329.50  0.0000E+000  
  330.00  3.8157E-004  
  330.50  7.7606E-004  
  331.00  1.0105E-003  
  331.50  1.0762E-003  
  332.00  8.3608E-004  
  332.50  6.0337E-004  
  333.00  4.1626E-004  
  333.50  3.0812E-004  
  334.00  3.7177E-004  
  334.50  3.6271E-004  
  335.00  2.3399E-004  
  335.50  5.6700E-005  
  336.00  5.2584E-005  
  336.50  6.5787E-005  
  337.00  2.3693E-004  
  337.50  3.5811E-004  
  338.00  4.0043E-004  
  338.50  3.5051E-004  
  339.00  2.8441E-004  
  339.50  4.9347E-004  
  340.00  6.0429E-004  
  340.50  7.8664E-004  
  341.00  7.6671E-004  
  341.50  5.6105E-004  
  342.00  3.7989E-004  
  342.50  3.8322E-004  
  343.00  3.2174E-004  
  343.50  2.9947E-004  
  344.00  2.5410E-004  
  344.50  2.2549E-004  
  345.00  1.9284E-004  
  345.50  2.7599E-004  
  346.00  3.5668E-004  
  346.50  5.8024E-004  
  347.00  7.3388E-004  
  347.50  7.2845E-004  
  348.00  4.8946E-004  
  348.50  2.6445E-004  
  349.00  2.7066E-004  
  349.50  4.4604E-004  
  350.00  8.1024E-004  
  350.50  8.9699E-004  
  351.00  7.5875E-004  
  351.50  6.0747E-004  
  352.00  4.0515E-004  
  352.50  2.2701E-004  
  353.00  8.3370E-005  
  353.50  1.8448E-004  
  354.00  3.0357E-004  
  354.50  3.8140E-004  
  355.00  4.1514E-004  
  355.50  1.3098E-004  
  356.00  1.7721E-004  
  356.50  3.9275E-004  
  357.00  5.1772E-004  
  357.50  5.6342E-004  
  358.00  4.1128E-004  
  358.50  2.3525E-004  
  359.00  2.5879E-004  
  359.50  3.6057E-004  
  360.00  5.8613E-004  
  360.50  8.3338E-004  
  361.00  8.3836E-004  
  361.50  7.1387E-004  
  362.00  3.5601E-004  
  362.50  1.2612E-004  
  363.00  7.9256E-005  
  363.50  2.3304E-004  
  364.00  3.3350E-004  
  364.50  1.8045E-004  
  365.00  9.3277E-005  
  365.50  1.0896E-004  
  366.00  4.3141E-004  
  366.50  8.4722E-004  
  367.00  1.1101E-003  
  367.50  1.0031E-003  
  368.00  7.4878E-004  
  368.50  3.8021E-004  
  369.00  1.8029E-004  
  369.50  1.5983E-004  
  370.00  2.7640E-004  
  370.50  4.2374E-004  
  371.00  4.4396E-004  
  371.50  4.1180E-004  
  372.00  4.1433E-004  
  372.50  4.9455E-004  
  373.00  5.9018E-004  
  373.50  5.9397E-004  
  374.00  5.5139E-004  
  374.50  5.2494E-004  
  375.00  4.4443E-004  
  375.50  6.5330E-004  
  376.00  7.2475E-004  
  376.50  8.7089E-004  
  377.00  8.4736E-004  
  377.50  5.4733E-004  
  378.00  4.0398E-004  
  378.50  3.4520E-004  
  379.00  5.3207E-004  
  379.50  8.7058E-004  
  380.00  9.7812E-004  
  380.50  1.1395E-003  
  381.00  1.2698E-003  
  381.50  1.2519E-003  
  382.00  1.3324E-003  
  382.50  1.1075E-003  
  383.00  8.8231E-004  
  383.50  7.5424E-004  
  384.00  6.8270E-004  
  384.50  8.0685E-004  
  385.00  9.0843E-004  
  385.50  8.7137E-004  
  386.00  8.4556E-004  
  386.50  7.1014E-004  
  387.00  6.5320E-004  
  387.50  6.7524E-004  
  388.00  7.0404E-004  
  388.50  7.1780E-004  
  389.00  6.2837E-004  
  389.50  5.8008E-004  
  390.00  6.8059E-004  
  390.50  6.9290E-004  
  391.00  8.4302E-004  
  391.50  8.4064E-004  
  392.00  8.5261E-004  
  392.50  7.8578E-004  
  393.00  7.1567E-004  
  393.50  6.7077E-004  
  394.00  6.2792E-004  
  394.50  6.8999E-004  
  395.00  9.2697E-004  
  395.50  1.1305E-003  
  396.00  1.4248E-003  
  396.50  1.4549E-003  
  397.00  1.1640E-003  
  397.50  9.9496E-004  
  398.00  8.8043E-004  
  398.50  1.1275E-003  
  399.00  1.1980E-003  
  399.50  1.1747E-003  
  400.00  9.1424E-004  
  400.50  7.2824E-004  
  401.00  7.9977E-004  
  401.50  1.0290E-003  
  402.00  1.0984E-003  
  402.50  9.6437E-004  
  403.00  8.3782E-004  
  403.50  6.4047E-004  
  404.00  6.6436E-004  
  404.50  7.4793E-004  
  405.00  7.0428E-004  
  405.50  6.5302E-004  
  406.00  6.9652E-004  
  406.50  7.3195E-004  
  407.00  9.3379E-004  
  407.50  9.1765E-004  
  408.00  9.5832E-004  
  408.50  9.0831E-004  
  409.00  9.5073E-004  
  409.50  1.1114E-003  
  410.00  1.1000E-003  
  410.50  1.0875E-003  
  411.00  1.0027E-003  
  411.50  9.6036E-004  
  412.00  9.7084E-004  
  412.50  9.7526E-004  
  413.00  1.0205E-003  
  413.50  1.1039E-003  
  414.00  1.1097E-003  
  414.50  1.1527E-003  
  415.00  1.1171E-003  
  415.50  1.1444E-003  
  416.00  1.3121E-003  
  416.50  1.4043E-003  
  417.00  1.3437E-003  
  417.50  1.2089E-003  
  418.00  1.1567E-003  
  418.50  1.2832E-003  
  419.00  1.3526E-003  
  419.50  1.3635E-003  
  420.00  1.2663E-003  
  420.50  1.1919E-003  
  421.00  1.2373E-003  
  421.50  1.4136E-003  
  422.00  1.5377E-003  
  422.50  1.6675E-003  
  423.00  1.6474E-003  
  423.50  1.6355E-003  
  424.00  1.6064E-003  
  424.50  1.5549E-003  
  425.00  1.5227E-003  
  425.50  1.4931E-003  
  426.00  1.6369E-003  
  426.50  1.7294E-003  
  427.00  1.7971E-003  
  427.50  1.7447E-003  
  428.00  1.6778E-003  
  428.50  1.5800E-003  
  429.00  1.5312E-003  
  429.50  1.3866E-003  
  430.00  1.4981E-003  
  430.50  1.4984E-003  
  431.00  1.7951E-003  
  431.50  2.1480E-003  
  432.00  2.2164E-003  
  432.50  1.9849E-003  
  433.00  1.5632E-003  
  433.50  1.4300E-003  
  434.00  1.5121E-003  
  434.50  1.6981E-003  
  435.00  1.6619E-003  
  435.50  1.7579E-003  
  436.00  1.9900E-003  
  436.50  2.2251E-003  
  437.00  2.3603E-003  
  437.50  2.2201E-003  
  438.00  2.1337E-003  
  438.50  1.9738E-003  
  439.00  1.8604E-003  
  439.50  1.8767E-003  
  440.00  1.9038E-003  
  440.50  1.9488E-003  
  441.00  1.9220E-003  
  441.50  1.9160E-003  
  442.00  2.0459E-003  
  442.50  2.2536E-003  
  443.00  2.3074E-003  
  443.50  2.2268E-003  
  444.00  2.2242E-003  
  444.50  2.1836E-003  
  445.00  2.3835E-003  
  445.50  2.3263E-003  
  446.00  2.1300E-003  
  446.50  1.9252E-003  
  447.00  1.8448E-003  
  447.50  1.9152E-003  
  448.00  2.1145E-003  
  448.50  2.1568E-003  
  449.00  2.1618E-003  
  449.50  2.3321E-003  
  450.00  2.4795E-003  
  450.50  2.5940E-003  
  451.00  2.5887E-003  
  451.50  2.4292E-003  
  452.00  2.4211E-003  
  452.50  2.5843E-003  
  453.00  2.8025E-003  
  453.50  2.8856E-003  
  454.00  2.8837E-003  
  454.50  2.7947E-003  
  455.00  2.7933E-003  
  455.50  2.8588E-003  
  456.00  3.0627E-003  
  456.50  3.2703E-003  
  457.00  3.2167E-003  
  457.50  3.2553E-003  
  458.00  3.1564E-003  
  458.50  3.1959E-003  
  459.00  3.3529E-003  
  459.50  3.3507E-003  
  460.00  3.2848E-003  
  460.50  3.2999E-003  
  461.00  3.3225E-003  
  461.50  3.4048E-003  
  462.00  3.4806E-003  
  462.50  3.6130E-003  
  463.00  3.7128E-003  
  463.50  3.9594E-003  
  464.00  3.9930E-003  
  464.50  3.9163E-003  
  465.00  3.8907E-003  
  465.50  3.7382E-003  
  466.00  3.5747E-003  
  466.50  3.4779E-003  
  467.00  3.6018E-003  
  467.50  3.8654E-003  
  468.00  3.9692E-003  
  468.50  3.8891E-003  
  469.00  3.8047E-003  
  469.50  3.8036E-003  
  470.00  3.9847E-003  
  470.50  4.1015E-003  
  471.00  4.2782E-003  
  471.50  4.3453E-003  
  472.00  4.3304E-003  
  472.50  4.1769E-003  
  473.00  3.9621E-003  
  473.50  3.9601E-003  
  474.00  4.0051E-003  
  474.50  4.2615E-003  
  475.00  4.4212E-003  
  475.50  4.5401E-003  
  476.00  4.5799E-003  
  476.50  4.5633E-003  
  477.00  4.5745E-003  
  477.50  4.5165E-003  
  478.00  4.4490E-003  
  478.50  4.4265E-003  
  479.00  4.5025E-003  
  479.50  4.6901E-003  
  480.00  4.9985E-003  
  480.50  5.0671E-003  
  481.00  5.0018E-003  
  481.50  4.9430E-003  
  482.00  4.9912E-003  
  482.50  5.1469E-003  
  483.00  5.2459E-003  
  483.50  5.2159E-003  
  484.00  5.2047E-003  
  484.50  5.1510E-003  
  485.00  5.1209E-003  
  485.50  5.2464E-003  
  486.00  5.3120E-003  
  486.50  5.4202E-003  
  487.00  5.4031E-003  
  487.50  5.3773E-003  
  488.00  5.4785E-003  
  488.50  5.4903E-003  
  489.00  5.5459E-003  
  489.50  5.5237E-003  
  490.00  5.5790E-003  
  490.50  5.6720E-003  
  491.00  5.6924E-003  
  491.50  5.7281E-003  
  492.00  5.8312E-003  
  492.50  5.9081E-003  
  493.00  6.0928E-003  
  493.50  6.1348E-003  
  494.00  6.1767E-003  
  494.50  6.2003E-003  
  495.00  6.2078E-003  
  495.50  6.2502E-003  
  496.00  6.1854E-003  
  496.50  6.1685E-003  
  497.00  6.1417E-003  
  497.50  6.1938E-003  
  498.00  6.2792E-003  
  498.50  6.4072E-003  
  499.00  6.5318E-003  
  499.50  6.6981E-003  
  500.00  6.7766E-003  
  500.50  6.9205E-003  
  501.00  7.1242E-003  
  501.50  7.2037E-003  
  502.00  7.3149E-003  
  502.50  7.4427E-003  
  503.00  7.6418E-003  
  503.50  7.8773E-003  
  504.00  8.0212E-003  
  504.50  8.0727E-003  
  505.00  8.0378E-003  
  505.50  8.0872E-003  
  506.00  8.1832E-003  
  506.50  8.4273E-003  
  507.00  8.6337E-003  
  507.50  8.9120E-003  
  508.00  9.2769E-003  
  508.50  9.5648E-003  
  509.00  9.7632E-003  
  509.50  9.9101E-003  
  510.00  1.0128E-002  
  510.50  1.0472E-002  
  511.00  1.0740E-002  
  511.50  1.1029E-002  
  512.00  1.1290E-002  
  512.50  1.1644E-002  
  513.00  1.1993E-002  
  513.50  1.2394E-002  
  514.00  1.2826E-002  
  514.50  1.3299E-002  
  515.00  1.3817E-002  
  515.50  1.4288E-002  
  516.00  1.4806E-002  
  516.50  1.5345E-002  
  517.00  1.5900E-002  
  517.50  1.6551E-002  
  518.00  1.7196E-002  
  518.50  1.7789E-002  
  519.00  1.8450E-002  
  519.50  1.9052E-002  
  520.00  1.9719E-002  
  520.50  2.0356E-002  
  521.00  2.1054E-002  
  521.50  2.1916E-002  
  522.00  2.2761E-002  
  522.50  2.3597E-002  
  523.00  2.4498E-002  
  523.50  2.5403E-002  
  524.00  2.6370E-002  
  524.50  2.7194E-002  
  525.00  2.8092E-002  
  525.50  2.9121E-002  
  526.00  3.0232E-002  
  526.50  3.1220E-002  
  527.00  3.2160E-002  
  527.50  3.3085E-002  
  528.00  3.4244E-002  
  528.50  3.5349E-002  
  529.00  3.6247E-002  
  529.50  3.6997E-002  
  530.00  3.7835E-002  
  530.50  3.8979E-002  
  531.00  4.0217E-002  
  531.50  4.1411E-002  
  532.00  4.2431E-002  
  532.50  4.3429E-002  
  533.00  4.4287E-002  
  533.50  4.5302E-002  
  534.00  4.6240E-002  
  534.50  4.7253E-002  
  535.00  4.8387E-002  
  535.50  4.9574E-002  
  536.00  5.0545E-002  
  536.50  5.1444E-002  
  537.00  5.2254E-002  
  537.50  5.3132E-002  
  538.00  5.4104E-002  
  538.50  5.4938E-002  
  539.00  5.5819E-002  
  539.50  5.6618E-002  
  540.00  5.7454E-002  
  540.50  5.8426E-002  
  541.00  5.9580E-002  
  541.50  6.0639E-002  
  542.00  6.1478E-002  
  542.50  6.2174E-002  
  543.00  6.2824E-002  
  543.50  6.3504E-002  
  544.00  6.4291E-002  
  544.50  6.5103E-002  
  545.00  6.6082E-002  
  545.50  6.6998E-002  
  546.00  6.7790E-002  
  546.50  6.8476E-002  
  547.00  6.9149E-002  
  547.50  6.9873E-002  
  548.00  7.0669E-002  
  548.50  7.1613E-002  
  549.00  7.2681E-002  
  549.50  7.3734E-002  
  550.00  7.4446E-002  
  550.50  7.5010E-002  
  551.00  7.5510E-002  
  551.50  7.6152E-002  
  552.00  7.6898E-002  
  552.50  7.7606E-002  
  553.00  7.8301E-002  
  553.50  7.9171E-002  
  554.00  7.9916E-002  
  554.50  8.0752E-002  
  555.00  8.1473E-002  
  555.50  8.2172E-002  
  556.00  8.3045E-002  
  556.50  8.3771E-002  
  557.00  8.4671E-002  
  557.50  8.5319E-002  
  558.00  8.6089E-002  
  558.50  8.6799E-002  
  559.00  8.7599E-002  
  559.50  8.8363E-002  
  560.00  8.9195E-002  
  560.50  8.9785E-002  
  561.00  9.0554E-002  
  561.50  9.1276E-002  
  562.00  9.2012E-002  
  562.50  9.2960E-002  
  563.00  9.3787E-002  
  563.50  9.4794E-002  
  564.00  9.5525E-002  
  564.50  9.6088E-002  
  565.00  9.6817E-002  
  565.50  9.7514E-002  
  566.00  9.8293E-002  
  566.50  9.8878E-002  
  567.00  9.9612E-002  
  567.50  1.0043E-001  
  568.00  1.0127E-001  
  568.50  1.0210E-001  
  569.00  1.0286E-001  
  569.50  1.0365E-001  
  570.00  1.0440E-001  
  570.50  1.0511E-001  
  571.00  1.0573E-001  
  571.50  1.0639E-001  
  572.00  1.0733E-001  
  572.50  1.0848E-001  
  573.00  1.0965E-001  
  573.50  1.1058E-001  
  574.00  1.1138E-001  
  574.50  1.1219E-001  
  575.00  1.1294E-001  
  575.50  1.1386E-001  
  576.00  1.1496E-001  
  576.50  1.1612E-001  
  577.00  1.1726E-001  
  577.50  1.1813E-001  
  578.00  1.1893E-001  
  578.50  1.1996E-001  
  579.00  1.2077E-001  
  579.50  1.2188E-001  
  580.00  1.2304E-001  
  580.50  1.2430E-001  
  581.00  1.2559E-001  
  581.50  1.2691E-001  
  582.00  1.2812E-001  
  582.50  1.2925E-001  
  583.00  1.3016E-001  
  583.50  1.3111E-001  
  584.00  1.3239E-001  
  584.50  1.3376E-001  
  585.00  1.3523E-001  
  585.50  1.3667E-001  
  586.00  1.3813E-001  
  586.50  1.3971E-001  
  587.00  1.4148E-001  
  587.50  1.4343E-001  
  588.00  1.4495E-001  
  588.50  1.4639E-001  
  589.00  1.4738E-001  
  589.50  1.4885E-001  
  590.00  1.5038E-001  
  590.50  1.5229E-001  
  591.00  1.5414E-001  
  591.50  1.5618E-001  
  592.00  1.5816E-001  
  592.50  1.5984E-001  
  593.00  1.6155E-001  
  593.50  1.6286E-001  
  594.00  1.6469E-001  
  594.50  1.6678E-001  
  595.00  1.6915E-001  
  595.50  1.7133E-001  
  596.00  1.7317E-001  
  596.50  1.7479E-001  
  597.00  1.7636E-001  
  597.50  1.7766E-001  
  598.00  1.7907E-001  
  598.50  1.8055E-001  
  599.00  1.8254E-001  
  599.50  1.8461E-001  
  600.00  1.8638E-001  
  600.50  1.8815E-001  
  601.00  1.9030E-001  
  601.50  1.9251E-001  
  602.00  1.9448E-001  
  602.50  1.9597E-001  
  603.00  1.9736E-001  
  603.50  1.9877E-001  
  604.00  2.0030E-001  
  604.50  2.0176E-001  
  605.00  2.0361E-001  
  605.50  2.0566E-001  
  606.00  2.0744E-001  
  606.50  2.0880E-001  
  607.00  2.1014E-001  
  607.50  2.1174E-001  
  608.00  2.1385E-001  
  608.50  2.1549E-001  
  609.00  2.1704E-001  
  609.50  2.1804E-001  
  610.00  2.1915E-001  
  610.50  2.2014E-001  
  611.00  2.2143E-001  
  611.50  2.2281E-001  
  612.00  2.2441E-001  
  612.50  2.2571E-001  
  613.00  2.2694E-001  
  613.50  2.2823E-001  
  614.00  2.2981E-001  
  614.50  2.3125E-001  
  615.00  2.3220E-001  
  615.50  2.3318E-001  
  616.00  2.3415E-001  
  616.50  2.3532E-001  
  617.00  2.3618E-001  
  617.50  2.3687E-001  
  618.00  2.3760E-001  
  618.50  2.3846E-001  
  619.00  2.3960E-001  
  619.50  2.4100E-001  
  620.00  2.4257E-001  
  620.50  2.4344E-001  
  621.00  2.4411E-001  
  621.50  2.4460E-001  
  622.00  2.4601E-001  
  622.50  2.4729E-001  
  623.00  2.4797E-001  
  623.50  2.4851E-001  
  624.00  2.4916E-001  
  624.50  2.5008E-001  
  625.00  2.5061E-001  
  625.50  2.5101E-001  
  626.00  2.5188E-001  
  626.50  2.5282E-001  
  627.00  2.5363E-001  
  627.50  2.5423E-001  
  628.00  2.5526E-001  
  628.50  2.5664E-001  
  629.00  2.5779E-001  
  629.50  2.5850E-001  
  630.00  2.5970E-001  
  630.50  2.6058E-001  
  631.00  2.6154E-001  
  631.50  2.6219E-001  
  632.00  2.6301E-001  
  632.50  2.6404E-001  
  633.00  2.6542E-001  
  633.50  2.6696E-001  
  634.00  2.6844E-001  
  634.50  2.6907E-001  
  635.00  2.6937E-001  
  635.50  2.6944E-001  
  636.00  2.6982E-001  
  636.50  2.7043E-001  
  637.00  2.7115E-001  
  637.50  2.7168E-001  
  638.00  2.7234E-001  
  638.50  2.7342E-001  
  639.00  2.7449E-001  
  639.50  2.7507E-001  
  640.00  2.7553E-001  
  640.50  2.7610E-001  
  641.00  2.7735E-001  
  641.50  2.7851E-001  
  642.00  2.7950E-001  
  642.50  2.8095E-001  
  643.00  2.8171E-001  
  643.50  2.8263E-001  
  644.00  2.8300E-001  
  644.50  2.8322E-001  
  645.00  2.8430E-001  
  645.50  2.8485E-001  
  646.00  2.8614E-001  
  646.50  2.8690E-001  
  647.00  2.8816E-001  
  647.50  2.8922E-001  
  648.00  2.8929E-001  
  648.50  2.8920E-001  
  649.00  2.8919E-001  
  649.50  2.9004E-001  
  650.00  2.9054E-001  
  650.50  2.9153E-001  
  651.00  2.9220E-001  
  651.50  2.9311E-001  
  652.00  2.9435E-001  
  652.50  2.9501E-001  
  653.00  2.9529E-001  
  653.50  2.9525E-001  
  654.00  2.9618E-001  
  654.50  2.9788E-001  
  655.00  2.9913E-001  
  655.50  2.9991E-001  
  656.00  3.0029E-001  
  656.50  3.0048E-001  
  657.00  3.0051E-001  
  657.50  3.0058E-001  
  658.00  3.0108E-001  
  658.50  3.0235E-001  
  659.00  3.0309E-001  
  659.50  3.0329E-001  
  660.00  3.0344E-001  
  660.50  3.0384E-001  
  661.00  3.0428E-001  
  661.50  3.0471E-001  
  662.00  3.0510E-001  
  662.50  3.0604E-001  
  663.00  3.0675E-001  
  663.50  3.0742E-001  
  664.00  3.0741E-001  
  664.50  3.0725E-001  
  665.00  3.0764E-001  
  665.50  3.0814E-001  
  666.00  3.0875E-001  
  666.50  3.0927E-001  
  667.00  3.1043E-001  
  667.50  3.1086E-001  
  668.00  3.1147E-001  
  668.50  3.1153E-001  
  669.00  3.1222E-001  
  669.50  3.1252E-001  
  670.00  3.1275E-001  
  670.50  3.1351E-001  
  671.00  3.1447E-001  
  671.50  3.1509E-001  
  672.00  3.1564E-001  
  672.50  3.1583E-001  
  673.00  3.1645E-001  
  673.50  3.1634E-001  
  674.00  3.1641E-001  
  674.50  3.1633E-001  
  675.00  3.1674E-001  
  675.50  3.1738E-001  
  676.00  3.1810E-001  
  676.50  3.1829E-001  
  677.00  3.1828E-001  
  677.50  3.1860E-001  
  678.00  3.1900E-001  
  678.50  3.1884E-001  
  679.00  3.1884E-001  
  679.50  3.1920E-001  
  680.00  3.2027E-001  
  680.50  3.2094E-001  
  681.00  3.2049E-001  
  681.50  3.2057E-001  
  682.00  3.2121E-001  
  682.50  3.2289E-001  
  683.00  3.2351E-001  
  683.50  3.2308E-001  
  684.00  3.2282E-001  
  684.50  3.2291E-001  
  685.00  3.2329E-001  
  685.50  3.2322E-001  
  686.00  3.2315E-001  
  686.50  3.2358E-001  
  687.00  3.2472E-001  
  687.50  3.2609E-001  
  688.00  3.2708E-001  
  688.50  3.2742E-001  
  689.00  3.2786E-001  
  689.50  3.2865E-001  
  690.00  3.2914E-001  
  690.50  3.2937E-001  
  691.00  3.2919E-001  
  691.50  3.2954E-001  
  692.00  3.2944E-001  
  692.50  3.2884E-001  
  693.00  3.2812E-001  
  693.50  3.2843E-001  
  694.00  3.2909E-001  
  694.50  3.2943E-001  
  695.00  3.2950E-001  
  695.50  3.3022E-001  
  696.00  3.3112E-001  
  696.50  3.3210E-001  
  697.00  3.3241E-001  
  697.50  3.3290E-001  
  698.00  3.3305E-001  
  698.50  3.3347E-001  
  699.00  3.3323E-001  
  699.50  3.3302E-001  
  700.00  3.3354E-001  
  700.50  3.3426E-001  
  701.00  3.3509E-001  
  701.50  3.3542E-001  
  702.00  3.3556E-001  
  702.50  3.3624E-001  
  703.00  3.3674E-001  
  703.50  3.3751E-001  
  704.00  3.3788E-001  
  704.50  3.3826E-001  
  705.00  3.3904E-001  
  705.50  3.3933E-001  
  706.00  3.3916E-001  
  706.50  3.3897E-001  
  707.00  3.3880E-001  
  707.50  3.3877E-001  
  708.00  3.3882E-001  
  708.50  3.3942E-001  
  709.00  3.3989E-001  
  709.50  3.4055E-001  
  710.00  3.4160E-001  
  710.50  3.4374E-001  
  711.00  3.4448E-001  
  711.50  3.4367E-001  
  712.00  3.4221E-001  
  712.50  3.4183E-001  
  713.00  3.4266E-001  
  713.50  3.4420E-001  
  714.00  3.4555E-001  
  714.50  3.4576E-001  
  715.00  3.4530E-001  
  715.50  3.4441E-001  
  716.00  3.4401E-001  
  716.50  3.4379E-001  
  717.00  3.4418E-001  
  717.50  3.4467E-001  
  718.00  3.4506E-001  
  718.50  3.4486E-001  
  719.00  3.4566E-001  
  719.50  3.4639E-001  
  720.00  3.4744E-001  
  720.50  3.4794E-001  
  721.00  3.4913E-001  
  721.50  3.4883E-001  
  722.00  3.4855E-001  
  722.50  3.4772E-001  
  723.00  3.4784E-001  
  723.50  3.4802E-001  
  724.00  3.4927E-001  
  724.50  3.5083E-001  
  725.00  3.5078E-001  
  725.50  3.5002E-001  
  726.00  3.4907E-001  
  726.50  3.4973E-001  
  727.00  3.5088E-001  
  727.50  3.5206E-001  
  728.00  3.5243E-001  
  728.50  3.5287E-001  
  729.00  3.5324E-001  
  729.50  3.5392E-001  
  730.00  3.5385E-001  
  730.50  3.5407E-001  
  731.00  3.5398E-001  
  731.50  3.5428E-001  
  732.00  3.5457E-001  
  732.50  3.5533E-001  
  733.00  3.5576E-001  
  733.50  3.5557E-001  
  734.00  3.5583E-001  
  734.50  3.5576E-001  
  735.00  3.5569E-001  
  735.50  3.5504E-001  
  736.00  3.5643E-001  
  736.50  3.5801E-001  
  737.00  3.5819E-001  
  737.50  3.5709E-001  
  738.00  3.5670E-001  
  738.50  3.5739E-001  
  739.00  3.5801E-001  
  739.50  3.5879E-001  
  740.00  3.5920E-001  
  740.50  3.5884E-001  
  741.00  3.5834E-001  
  741.50  3.5818E-001  
  742.00  3.5767E-001  
  742.50  3.5782E-001  
  743.00  3.5887E-001  
  743.50  3.5999E-001  
  744.00  3.6035E-001  
  744.50  3.6090E-001  
  745.00  3.6187E-001  
  745.50  3.6192E-001  
  746.00  3.6174E-001  
  746.50  3.6176E-001  
  747.00  3.6180E-001  
  747.50  3.6260E-001  
  748.00  3.6279E-001  
  748.50  3.6337E-001  
  749.00  3.6294E-001  
  749.50  3.6337E-001  
  750.00  3.6429E-001  
  750.50  3.6546E-001  
  751.00  3.6686E-001  
  751.50  3.6703E-001  
  752.00  3.6714E-001  
  752.50  3.6754E-001  
  753.00  3.6706E-001  
  753.50  3.6599E-001  
  754.00  3.6512E-001  
  754.50  3.6510E-001  
  755.00  3.6522E-001  
  755.50  3.6525E-001  
  756.00  3.6553E-001  
  756.50  3.6657E-001  
  757.00  3.6767E-001  
  757.50  3.6854E-001  
  758.00  3.6958E-001  
  758.50  3.7028E-001  
  759.00  3.7006E-001  
  759.50  3.6957E-001  
  760.00  3.6943E-001  
  760.50  3.6915E-001  
  761.00  3.6959E-001  
  761.50  3.7143E-001  
  762.00  3.7343E-001  
  762.50  3.7300E-001  
  763.00  3.7156E-001  
  763.50  3.7013E-001  
  764.00  3.7120E-001  
  764.50  3.7166E-001  
  765.00  3.7287E-001  
  765.50  3.7428E-001  
  766.00  3.7485E-001  
  766.50  3.7447E-001  
  767.00  3.7401E-001  
  767.50  3.7431E-001  
  768.00  3.7478E-001  
  768.50  3.7553E-001  
  769.00  3.7640E-001  
  769.50  3.7631E-001  
  770.00  3.7479E-001  
  770.50  3.7434E-001  
  771.00  3.7479E-001  
  771.50  3.7580E-001  
  772.00  3.7590E-001  
  772.50  3.7636E-001  
  773.00  3.7611E-001  
  773.50  3.7632E-001  
  774.00  3.7596E-001  
  774.50  3.7603E-001  
  775.00  3.7576E-001  
  775.50  3.7680E-001  
  776.00  3.7686E-001  
  776.50  3.7626E-001  
  777.00  3.7542E-001  
  777.50  3.7682E-001  
  778.00  3.7769E-001  
  778.50  3.7838E-001  
  779.00  3.7927E-001  
  779.50  3.8008E-001  
  780.00  3.8012E-001  
  780.50  3.7918E-001  
  781.00  3.7921E-001  
  781.50  3.7941E-001  
  782.00  3.7935E-001  
  782.50  3.7983E-001  
  783.00  3.8060E-001  
  783.50  3.8116E-001  
  784.00  3.8186E-001  
  784.50  3.8332E-001  
  785.00  3.8439E-001  
  785.50  3.8539E-001  
  786.00  3.8521E-001  
  786.50  3.8474E-001  
  787.00  3.8475E-001  
  787.50  3.8442E-001  
  788.00  3.8397E-001  
  788.50  3.8361E-001  
  789.00  3.8441E-001  
  789.50  3.8548E-001  
  790.00  3.8665E-001  
  790.50  3.8651E-001  
  791.00  3.8519E-001  
  791.50  3.8508E-001  
  792.00  3.8613E-001  
  792.50  3.8892E-001  
  793.00  3.9063E-001  
  793.50  3.9067E-001  
  794.00  3.8929E-001  
  794.50  3.8831E-001  
  795.00  3.8905E-001  
  795.50  3.8967E-001  
  796.00  3.8910E-001  
  796.50  3.8921E-001  
  797.00  3.9050E-001  
  797.50  3.9204E-001  
  798.00  3.9168E-001  
  798.50  3.8948E-001  
  799.00  3.8907E-001  
  799.50  3.9083E-001  
  800.00  3.9291E-001  
  800.50  3.9322E-001  
  801.00  3.9263E-001  
  801.50  3.9184E-001  
  802.00  3.9106E-001  
  802.50  3.9087E-001  
  803.00  3.9135E-001  
  803.50  3.9289E-001  
  804.00  3.9405E-001  
  804.50  3.9514E-001  
  805.00  3.9466E-001  
  805.50  3.9398E-001  
  806.00  3.9421E-001  
  806.50  3.9456E-001  
  807.00  3.9469E-001  
  807.50  3.9583E-001  
  808.00  3.9767E-001  
  808.50  3.9749E-001  
  809.00  3.9683E-001  
  809.50  3.9550E-001  
  810.00  3.9578E-001  
  810.50  3.9696E-001  
  811.00  3.9867E-001  
  811.50  3.9982E-001  
  812.00  3.9970E-001  
  812.50  3.9853E-001  
  813.00  3.9797E-001  
  813.50  3.9932E-001  
  814.00  3.9865E-001  
  814.50  3.9920E-001  
  815.00  3.9938E-001  
  815.50  4.0040E-001  
  816.00  4.0119E-001  
  816.50  4.0169E-001  
  817.00  4.0244E-001  
  817.50  4.0205E-001  
  818.00  4.0324E-001  
  818.50  4.0271E-001  
  819.00  4.0145E-001  
  819.50  4.0050E-001  
  820.00  4.0228E-001  
  820.50  4.0507E-001  
  821.00  4.0530E-001  
  821.50  4.0375E-001  
  822.00  4.0328E-001  
  822.50  4.0494E-001  
  823.00  4.0794E-001  
  823.50  4.0909E-001  
  824.00  4.0808E-001  
  824.50  4.0606E-001  
  825.00  4.0634E-001  
  825.50  4.0738E-001  
  826.00  4.0896E-001  
  826.50  4.0995E-001  
  827.00  4.1009E-001  
  827.50  4.0878E-001  
  828.00  4.0738E-001  
  828.50  4.0608E-001  
  829.00  4.0652E-001  
  829.50  4.0712E-001  
  830.00  4.0849E-001  
  830.50  4.0946E-001  
  831.00  4.1023E-001  
  831.50  4.0943E-001  
  832.00  4.1085E-001  
  832.50  4.1156E-001  
  833.00  4.1197E-001  
  833.50  4.1341E-001  
  834.00  4.1201E-001  
  834.50  4.1039E-001  
  835.00  4.0912E-001  
  835.50  4.0959E-001  
  836.00  4.1168E-001  
  836.50  4.1286E-001  
  837.00  4.1302E-001  
  837.50  4.1368E-001  
  838.00  4.1517E-001  
  838.50  4.1605E-001  
  839.00  4.1651E-001  
  839.50  4.1703E-001  
  840.00  4.1553E-001  
  840.50  4.1462E-001  
  841.00  4.1621E-001  
  841.50  4.1570E-001  
  842.00  4.1369E-001  
  842.50  4.1282E-001  
  843.00  4.1233E-001  
  843.50  4.1418E-001  
  844.00  4.1625E-001  
  844.50  4.1687E-001  
  845.00  4.1838E-001  
  845.50  4.1675E-001  
  846.00  4.1550E-001  
  846.50  4.1380E-001  
  847.00  4.1459E-001  
  847.50  4.1685E-001  
  848.00  4.1811E-001  
  848.50  4.1852E-001  
  849.00  4.2008E-001  
  849.50  4.2312E-001  
  850.00  4.2500E-001  
  850.50  4.2237E-001  
  851.00  4.2068E-001  
  851.50  4.1925E-001  
  852.00  4.2082E-001  
  852.50  4.2160E-001  
  853.00  4.2372E-001  
  853.50  4.2213E-001  
  854.00  4.2021E-001  
  854.50  4.2122E-001  
  855.00  4.2309E-001  
  855.50  4.2386E-001  
  856.00  4.2177E-001  
  856.50  4.2220E-001  
  857.00  4.2419E-001  
  857.50  4.2469E-001  
  858.00  4.2308E-001  
  858.50  4.2120E-001  
  859.00  4.2224E-001  
  859.50  4.2251E-001  
  860.00  4.2343E-001  
  860.50  4.2530E-001  
  861.00  4.2812E-001  
  861.50  4.2757E-001  
  862.00  4.2561E-001  
  862.50  4.2372E-001  
  863.00  4.2513E-001  
  863.50  4.2640E-001  
  864.00  4.2580E-001  
  864.50  4.2635E-001  
  865.00  4.2632E-001  
  865.50  4.2878E-001  
  866.00  4.2750E-001  
  866.50  4.2360E-001  
  867.00  4.2191E-001  
  867.50  4.2407E-001  
  868.00  4.2695E-001  
  868.50  4.2814E-001  
  869.00  4.2744E-001  
  869.50  4.2979E-001  
  870.00  4.3068E-001  
  870.50  4.3162E-001  
  871.00  4.3018E-001  
  871.50  4.3004E-001  
  872.00  4.2793E-001  
  872.50  4.2806E-001  
  873.00  4.2911E-001  
  873.50  4.3191E-001  
  874.00  4.3187E-001  
  874.50  4.3010E-001  
  875.00  4.2976E-001  
  875.50  4.2761E-001  
  876.00  4.2504E-001  
  876.50  4.2411E-001  
  877.00  4.2625E-001  
  877.50  4.3108E-001  
  878.00  4.3302E-001  
  878.50  4.3137E-001  
  879.00  4.2946E-001  
  879.50  4.2849E-001  
  880.00  4.2749E-001  
  880.50  4.2651E-001  
  881.00  4.3060E-001  
  881.50  4.3396E-001  
  882.00  4.3204E-001  
  882.50  4.2932E-001  
  883.00  4.3004E-001  
  883.50  4.3307E-001  
  884.00  4.3402E-001  
  884.50  4.3429E-001  
  885.00  4.3136E-001  
  885.50  4.2973E-001  
  886.00  4.2777E-001  
  886.50  4.2858E-001  
  887.00  4.3127E-001  
  887.50  4.3357E-001  
  888.00  4.3362E-001  
  888.50  4.3233E-001  
  889.00  4.2998E-001  
  889.50  4.2880E-001  
  890.00  4.2869E-001  
  890.50  4.2952E-001  
  891.00  4.2946E-001  
  891.50  4.3208E-001  
  892.00  4.3336E-001  
  892.50  4.3113E-001  
  893.00  4.2948E-001  
  893.50  4.3154E-001  
  894.00  4.3162E-001  
  894.50  4.3016E-001  
  895.00  4.3032E-001  
  895.50  4.3472E-001  
  896.00  4.3580E-001  
  896.50  4.3249E-001  
  897.00  4.2932E-001  
  897.50  4.3050E-001  
  898.00  4.2834E-001  
  898.50  4.2881E-001  
  899.00  4.3219E-001  
  899.50  8.5807E-003  
