
# From lspdd.org
# 
# Name: DEL Standard candle -
# Indice spectral Valeur 
# MSI 0.38 
# SLI 0.53 
# IPI 0.69 
# Pourcentage de bleu 22.9 
# Caractéristique Valeur 
# CCT calculée (K) 3025 
# CCT du fabricant (K) 3000 
# Tension (V) 120 
# Puissance (W) 4.0 
# Efficacité lumineuse (Lum/W) ND 
#
# Image: '/app/system/img_1s/2774/medium_image1.jpg?1622001367'
# 

  273.00  0.0000E+000  
  273.50  0.0000E+000  
  274.00  0.0000E+000  
  274.50  0.0000E+000  
  275.00  0.0000E+000  
  275.50  0.0000E+000  
  276.00  0.0000E+000  
  276.50  0.0000E+000  
  277.00  0.0000E+000  
  277.50  0.0000E+000  
  278.00  0.0000E+000  
  278.50  0.0000E+000  
  279.00  0.0000E+000  
  279.50  0.0000E+000  
  280.00  0.0000E+000  
  280.50  0.0000E+000  
  281.00  0.0000E+000  
  281.50  0.0000E+000  
  282.00  0.0000E+000  
  282.50  0.0000E+000  
  283.00  0.0000E+000  
  283.50  0.0000E+000  
  284.00  0.0000E+000  
  284.50  0.0000E+000  
  285.00  0.0000E+000  
  285.50  0.0000E+000  
  286.00  0.0000E+000  
  286.50  0.0000E+000  
  287.00  0.0000E+000  
  287.50  0.0000E+000  
  288.00  0.0000E+000  
  288.50  0.0000E+000  
  289.00  0.0000E+000  
  289.50  0.0000E+000  
  290.00  0.0000E+000  
  290.50  0.0000E+000  
  291.00  0.0000E+000  
  291.50  0.0000E+000  
  292.00  0.0000E+000  
  292.50  0.0000E+000  
  293.00  0.0000E+000  
  293.50  0.0000E+000  
  294.00  0.0000E+000  
  294.50  0.0000E+000  
  295.00  0.0000E+000  
  295.50  0.0000E+000  
  296.00  0.0000E+000  
  296.50  0.0000E+000  
  297.00  0.0000E+000  
  297.50  0.0000E+000  
  298.00  0.0000E+000  
  298.50  0.0000E+000  
  299.00  0.0000E+000  
  299.50  0.0000E+000  
  300.00  4.9084E-005  
  300.50  1.6643E-004  
  301.00  2.0282E-004  
  301.50  1.5790E-004  
  302.00  2.3256E-004  
  302.50  3.0316E-004  
  303.00  4.7297E-004  
  303.50  6.1797E-004  
  304.00  5.9227E-004  
  304.50  6.1808E-004  
  305.00  4.8976E-004  
  305.50  5.2188E-004  
  306.00  7.1793E-004  
  306.50  6.5814E-004  
  307.00  6.8451E-004  
  307.50  6.6668E-004  
  308.00  6.1623E-004  
  308.50  5.0560E-004  
  309.00  4.2532E-004  
  309.50  1.1783E-004  
  310.00  0.0000E+000  
  310.50  0.0000E+000  
  311.00  1.7163E-005  
  311.50  3.0972E-004  
  312.00  6.9362E-004  
  312.50  9.7861E-004  
  313.00  1.0076E-003  
  313.50  7.4461E-004  
  314.00  4.4796E-004  
  314.50  2.1235E-004  
  315.00  8.5285E-005  
  315.50  9.3490E-005  
  316.00  2.2751E-004  
  316.50  2.8679E-004  
  317.00  1.4860E-004  
  317.50  0.0000E+000  
  318.00  0.0000E+000  
  318.50  0.0000E+000  
  319.00  1.2852E-005  
  319.50  5.9316E-005  
  320.00  5.6445E-005  
  320.50  0.0000E+000  
  321.00  4.4181E-005  
  321.50  1.5710E-004  
  322.00  1.4118E-004  
  322.50  2.9884E-004  
  323.00  3.8773E-004  
  323.50  4.8614E-004  
  324.00  5.5977E-004  
  324.50  5.9916E-004  
  325.00  5.9885E-004  
  325.50  5.3041E-004  
  326.00  5.2224E-004  
  326.50  3.3748E-004  
  327.00  2.8927E-004  
  327.50  2.9280E-004  
  328.00  4.6891E-004  
  328.50  6.2099E-004  
  329.00  7.5720E-004  
  329.50  7.4303E-004  
  330.00  7.0391E-004  
  330.50  8.1696E-004  
  331.00  7.5063E-004  
  331.50  7.6993E-004  
  332.00  8.5226E-004  
  332.50  8.7054E-004  
  333.00  9.8714E-004  
  333.50  8.9222E-004  
  334.00  5.7757E-004  
  334.50  4.2465E-004  
  335.00  3.4015E-004  
  335.50  3.7542E-004  
  336.00  6.2976E-004  
  336.50  7.6746E-004  
  337.00  8.1804E-004  
  337.50  8.5154E-004  
  338.00  6.2263E-004  
  338.50  5.0576E-004  
  339.00  4.5688E-004  
  339.50  3.5467E-004  
  340.00  5.0729E-004  
  340.50  5.2937E-004  
  341.00  6.5726E-004  
  341.50  6.9715E-004  
  342.00  5.3683E-004  
  342.50  4.4825E-004  
  343.00  5.2996E-004  
  343.50  8.9079E-004  
  344.00  1.2594E-003  
  344.50  1.3821E-003  
  345.00  1.3011E-003  
  345.50  1.2303E-003  
  346.00  1.1433E-003  
  346.50  1.3036E-003  
  347.00  1.3370E-003  
  347.50  1.1706E-003  
  348.00  1.0496E-003  
  348.50  7.9575E-004  
  349.00  6.8937E-004  
  349.50  5.8598E-004  
  350.00  6.8597E-004  
  350.50  9.1378E-004  
  351.00  1.0184E-003  
  351.50  1.2985E-003  
  352.00  1.1116E-003  
  352.50  8.9954E-004  
  353.00  7.7958E-004  
  353.50  7.2288E-004  
  354.00  9.0515E-004  
  354.50  1.0272E-003  
  355.00  1.0004E-003  
  355.50  8.2193E-004  
  356.00  7.4829E-004  
  356.50  7.4833E-004  
  357.00  7.3520E-004  
  357.50  7.6917E-004  
  358.00  6.6266E-004  
  358.50  5.2012E-004  
  359.00  4.7212E-004  
  359.50  5.3930E-004  
  360.00  7.2496E-004  
  360.50  7.9816E-004  
  361.00  9.4578E-004  
  361.50  8.5198E-004  
  362.00  6.9318E-004  
  362.50  6.4572E-004  
  363.00  6.6378E-004  
  363.50  6.9305E-004  
  364.00  7.7117E-004  
  364.50  7.3657E-004  
  365.00  5.7745E-004  
  365.50  3.0880E-004  
  366.00  3.6672E-004  
  366.50  3.8816E-004  
  367.00  3.8575E-004  
  367.50  3.8394E-004  
  368.00  3.5186E-004  
  368.50  4.2671E-004  
  369.00  5.5834E-004  
  369.50  7.7785E-004  
  370.00  9.3541E-004  
  370.50  1.1021E-003  
  371.00  1.4492E-003  
  371.50  1.3927E-003  
  372.00  1.2915E-003  
  372.50  1.2866E-003  
  373.00  1.0907E-003  
  373.50  1.0846E-003  
  374.00  1.0230E-003  
  374.50  7.7983E-004  
  375.00  6.7939E-004  
  375.50  8.4198E-004  
  376.00  9.6351E-004  
  376.50  1.0973E-003  
  377.00  1.1363E-003  
  377.50  1.1261E-003  
  378.00  1.2953E-003  
  378.50  1.4091E-003  
  379.00  1.4341E-003  
  379.50  1.4679E-003  
  380.00  1.3027E-003  
  380.50  1.2230E-003  
  381.00  9.8258E-004  
  381.50  9.0273E-004  
  382.00  1.1069E-003  
  382.50  1.4178E-003  
  383.00  1.7712E-003  
  383.50  2.0030E-003  
  384.00  1.9415E-003  
  384.50  1.9816E-003  
  385.00  2.0920E-003  
  385.50  2.2039E-003  
  386.00  2.1784E-003  
  386.50  2.0067E-003  
  387.00  1.6975E-003  
  387.50  1.6053E-003  
  388.00  1.6735E-003  
  388.50  1.6340E-003  
  389.00  1.6116E-003  
  389.50  1.6347E-003  
  390.00  1.7029E-003  
  390.50  1.7684E-003  
  391.00  1.7249E-003  
  391.50  1.6167E-003  
  392.00  1.5401E-003  
  392.50  1.6202E-003  
  393.00  1.8595E-003  
  393.50  2.1973E-003  
  394.00  2.4909E-003  
  394.50  2.5220E-003  
  395.00  2.4987E-003  
  395.50  2.5413E-003  
  396.00  2.6016E-003  
  396.50  2.6424E-003  
  397.00  2.6322E-003  
  397.50  2.6184E-003  
  398.00  2.6977E-003  
  398.50  3.0305E-003  
  399.00  3.2397E-003  
  399.50  3.4825E-003  
  400.00  3.8925E-003  
  400.50  4.0916E-003  
  401.00  4.4928E-003  
  401.50  4.7721E-003  
  402.00  5.0488E-003  
  402.50  5.2856E-003  
  403.00  5.4443E-003  
  403.50  5.6433E-003  
  404.00  5.8244E-003  
  404.50  6.1764E-003  
  405.00  6.5919E-003  
  405.50  7.1022E-003  
  406.00  7.6400E-003  
  406.50  7.8663E-003  
  407.00  8.2505E-003  
  407.50  9.0000E-003  
  408.00  1.0010E-002  
  408.50  1.1229E-002  
  409.00  1.2143E-002  
  409.50  1.2750E-002  
  410.00  1.3408E-002  
  410.50  1.4259E-002  
  411.00  1.5094E-002  
  411.50  1.6141E-002  
  412.00  1.7260E-002  
  412.50  1.8555E-002  
  413.00  2.0059E-002  
  413.50  2.1452E-002  
  414.00  2.2934E-002  
  414.50  2.4586E-002  
  415.00  2.6532E-002  
  415.50  2.8685E-002  
  416.00  3.0765E-002  
  416.50  3.2743E-002  
  417.00  3.4614E-002  
  417.50  3.6614E-002  
  418.00  3.8689E-002  
  418.50  4.0811E-002  
  419.00  4.3224E-002  
  419.50  4.5751E-002  
  420.00  4.8449E-002  
  420.50  5.0956E-002  
  421.00  5.3580E-002  
  421.50  5.6417E-002  
  422.00  5.9927E-002  
  422.50  6.3580E-002  
  423.00  6.7373E-002  
  423.50  7.1000E-002  
  424.00  7.4452E-002  
  424.50  7.8373E-002  
  425.00  8.1830E-002  
  425.50  8.5428E-002  
  426.00  8.9411E-002  
  426.50  9.3436E-002  
  427.00  9.7302E-002  
  427.50  1.0146E-001  
  428.00  1.0598E-001  
  428.50  1.1147E-001  
  429.00  1.1725E-001  
  429.50  1.2237E-001  
  430.00  1.2696E-001  
  430.50  1.3124E-001  
  431.00  1.3563E-001  
  431.50  1.4082E-001  
  432.00  1.4657E-001  
  432.50  1.5269E-001  
  433.00  1.5839E-001  
  433.50  1.6500E-001  
  434.00  1.7233E-001  
  434.50  1.7990E-001  
  435.00  1.8737E-001  
  435.50  1.9449E-001  
  436.00  2.0312E-001  
  436.50  2.1119E-001  
  437.00  2.1825E-001  
  437.50  2.2475E-001  
  438.00  2.3131E-001  
  438.50  2.4048E-001  
  439.00  2.4903E-001  
  439.50  2.5785E-001  
  440.00  2.6675E-001  
  440.50  2.7516E-001  
  441.00  2.8276E-001  
  441.50  2.8924E-001  
  442.00  2.9603E-001  
  442.50  3.0289E-001  
  443.00  3.0920E-001  
  443.50  3.1369E-001  
  444.00  3.1615E-001  
  444.50  3.1794E-001  
  445.00  3.1885E-001  
  445.50  3.1978E-001  
  446.00  3.1948E-001  
  446.50  3.1866E-001  
  447.00  3.1673E-001  
  447.50  3.1471E-001  
  448.00  3.1129E-001  
  448.50  3.0675E-001  
  449.00  3.0191E-001  
  449.50  2.9649E-001  
  450.00  2.8962E-001  
  450.50  2.8248E-001  
  451.00  2.7517E-001  
  451.50  2.6858E-001  
  452.00  2.6283E-001  
  452.50  2.5593E-001  
  453.00  2.4912E-001  
  453.50  2.4077E-001  
  454.00  2.3219E-001  
  454.50  2.2365E-001  
  455.00  2.1615E-001  
  455.50  2.1028E-001  
  456.00  2.0477E-001  
  456.50  1.9999E-001  
  457.00  1.9583E-001  
  457.50  1.9102E-001  
  458.00  1.8584E-001  
  458.50  1.7999E-001  
  459.00  1.7450E-001  
  459.50  1.6967E-001  
  460.00  1.6564E-001  
  460.50  1.6173E-001  
  461.00  1.5878E-001  
  461.50  1.5598E-001  
  462.00  1.5255E-001  
  462.50  1.4910E-001  
  463.00  1.4587E-001  
  463.50  1.4236E-001  
  464.00  1.3921E-001  
  464.50  1.3586E-001  
  465.00  1.3250E-001  
  465.50  1.2894E-001  
  466.00  1.2518E-001  
  466.50  1.2181E-001  
  467.00  1.1955E-001  
  467.50  1.1829E-001  
  468.00  1.1677E-001  
  468.50  1.1495E-001  
  469.00  1.1261E-001  
  469.50  1.1060E-001  
  470.00  1.0881E-001  
  470.50  1.0709E-001  
  471.00  1.0531E-001  
  471.50  1.0327E-001  
  472.00  1.0160E-001  
  472.50  1.0004E-001  
  473.00  9.8747E-002  
  473.50  9.7738E-002  
  474.00  9.6927E-002  
  474.50  9.6224E-002  
  475.00  9.5148E-002  
  475.50  9.3949E-002  
  476.00  9.2825E-002  
  476.50  9.2553E-002  
  477.00  9.2980E-002  
  477.50  9.3297E-002  
  478.00  9.3449E-002  
  478.50  9.3131E-002  
  479.00  9.3168E-002  
  479.50  9.3543E-002  
  480.00  9.4217E-002  
  480.50  9.4802E-002  
  481.00  9.4689E-002  
  481.50  9.5043E-002  
  482.00  9.5454E-002  
  482.50  9.6322E-002  
  483.00  9.7190E-002  
  483.50  9.7997E-002  
  484.00  9.9207E-002  
  484.50  1.0041E-001  
  485.00  1.0144E-001  
  485.50  1.0198E-001  
  486.00  1.0272E-001  
  486.50  1.0396E-001  
  487.00  1.0520E-001  
  487.50  1.0619E-001  
  488.00  1.0710E-001  
  488.50  1.0845E-001  
  489.00  1.0998E-001  
  489.50  1.1172E-001  
  490.00  1.1303E-001  
  490.50  1.1435E-001  
  491.00  1.1593E-001  
  491.50  1.1758E-001  
  492.00  1.1939E-001  
  492.50  1.2104E-001  
  493.00  1.2241E-001  
  493.50  1.2373E-001  
  494.00  1.2497E-001  
  494.50  1.2675E-001  
  495.00  1.2918E-001  
  495.50  1.3167E-001  
  496.00  1.3399E-001  
  496.50  1.3551E-001  
  497.00  1.3718E-001  
  497.50  1.3921E-001  
  498.00  1.4139E-001  
  498.50  1.4379E-001  
  499.00  1.4565E-001  
  499.50  1.4754E-001  
  500.00  1.4933E-001  
  500.50  1.5101E-001  
  501.00  1.5310E-001  
  501.50  1.5513E-001  
  502.00  1.5728E-001  
  502.50  1.5958E-001  
  503.00  1.6172E-001  
  503.50  1.6373E-001  
  504.00  1.6542E-001  
  504.50  1.6725E-001  
  505.00  1.6942E-001  
  505.50  1.7151E-001  
  506.00  1.7343E-001  
  506.50  1.7502E-001  
  507.00  1.7681E-001  
  507.50  1.7875E-001  
  508.00  1.8085E-001  
  508.50  1.8268E-001  
  509.00  1.8442E-001  
  509.50  1.8610E-001  
  510.00  1.8825E-001  
  510.50  1.9034E-001  
  511.00  1.9232E-001  
  511.50  1.9395E-001  
  512.00  1.9556E-001  
  512.50  1.9725E-001  
  513.00  1.9887E-001  
  513.50  2.0017E-001  
  514.00  2.0167E-001  
  514.50  2.0338E-001  
  515.00  2.0533E-001  
  515.50  2.0764E-001  
  516.00  2.0964E-001  
  516.50  2.1170E-001  
  517.00  2.1356E-001  
  517.50  2.1504E-001  
  518.00  2.1673E-001  
  518.50  2.1854E-001  
  519.00  2.2052E-001  
  519.50  2.2242E-001  
  520.00  2.2413E-001  
  520.50  2.2589E-001  
  521.00  2.2799E-001  
  521.50  2.2997E-001  
  522.00  2.3167E-001  
  522.50  2.3336E-001  
  523.00  2.3538E-001  
  523.50  2.3757E-001  
  524.00  2.3928E-001  
  524.50  2.4101E-001  
  525.00  2.4327E-001  
  525.50  2.4557E-001  
  526.00  2.4786E-001  
  526.50  2.4956E-001  
  527.00  2.5170E-001  
  527.50  2.5427E-001  
  528.00  2.5678E-001  
  528.50  2.5893E-001  
  529.00  2.6035E-001  
  529.50  2.6194E-001  
  530.00  2.6369E-001  
  530.50  2.6615E-001  
  531.00  2.6841E-001  
  531.50  2.7087E-001  
  532.00  2.7315E-001  
  532.50  2.7524E-001  
  533.00  2.7688E-001  
  533.50  2.7900E-001  
  534.00  2.8132E-001  
  534.50  2.8421E-001  
  535.00  2.8635E-001  
  535.50  2.8849E-001  
  536.00  2.9040E-001  
  536.50  2.9315E-001  
  537.00  2.9565E-001  
  537.50  2.9838E-001  
  538.00  3.0076E-001  
  538.50  3.0280E-001  
  539.00  3.0482E-001  
  539.50  3.0647E-001  
  540.00  3.0856E-001  
  540.50  3.1094E-001  
  541.00  3.1375E-001  
  541.50  3.1657E-001  
  542.00  3.1882E-001  
  542.50  3.2114E-001  
  543.00  3.2369E-001  
  543.50  3.2652E-001  
  544.00  3.2895E-001  
  544.50  3.3105E-001  
  545.00  3.3310E-001  
  545.50  3.3558E-001  
  546.00  3.3809E-001  
  546.50  3.4005E-001  
  547.00  3.4207E-001  
  547.50  3.4381E-001  
  548.00  3.4604E-001  
  548.50  3.4910E-001  
  549.00  3.5274E-001  
  549.50  3.5620E-001  
  550.00  3.5835E-001  
  550.50  3.6014E-001  
  551.00  3.6221E-001  
  551.50  3.6446E-001  
  552.00  3.6684E-001  
  552.50  3.6888E-001  
  553.00  3.7105E-001  
  553.50  3.7346E-001  
  554.00  3.7569E-001  
  554.50  3.7833E-001  
  555.00  3.8086E-001  
  555.50  3.8302E-001  
  556.00  3.8527E-001  
  556.50  3.8698E-001  
  557.00  3.8919E-001  
  557.50  3.9159E-001  
  558.00  3.9414E-001  
  558.50  3.9678E-001  
  559.00  3.9948E-001  
  559.50  4.0198E-001  
  560.00  4.0487E-001  
  560.50  4.0669E-001  
  561.00  4.0944E-001  
  561.50  4.1189E-001  
  562.00  4.1367E-001  
  562.50  4.1584E-001  
  563.00  4.1745E-001  
  563.50  4.1983E-001  
  564.00  4.2199E-001  
  564.50  4.2433E-001  
  565.00  4.2679E-001  
  565.50  4.2932E-001  
  566.00  4.3081E-001  
  566.50  4.3211E-001  
  567.00  4.3361E-001  
  567.50  4.3564E-001  
  568.00  4.3781E-001  
  568.50  4.3990E-001  
  569.00  4.4156E-001  
  569.50  4.4312E-001  
  570.00  4.4459E-001  
  570.50  4.4632E-001  
  571.00  4.4812E-001  
  571.50  4.4999E-001  
  572.00  4.5236E-001  
  572.50  4.5521E-001  
  573.00  4.5802E-001  
  573.50  4.5989E-001  
  574.00  4.6114E-001  
  574.50  4.6270E-001  
  575.00  4.6460E-001  
  575.50  4.6690E-001  
  576.00  4.6885E-001  
  576.50  4.7071E-001  
  577.00  4.7238E-001  
  577.50  4.7392E-001  
  578.00  4.7558E-001  
  578.50  4.7745E-001  
  579.00  4.7882E-001  
  579.50  4.8017E-001  
  580.00  4.8187E-001  
  580.50  4.8332E-001  
  581.00  4.8527E-001  
  581.50  4.8680E-001  
  582.00  4.8864E-001  
  582.50  4.8980E-001  
  583.00  4.9094E-001  
  583.50  4.9193E-001  
  584.00  4.9389E-001  
  584.50  4.9550E-001  
  585.00  4.9735E-001  
  585.50  4.9859E-001  
  586.00  5.0036E-001  
  586.50  5.0161E-001  
  587.00  5.0281E-001  
  587.50  5.0443E-001  
  588.00  5.0564E-001  
  588.50  5.0730E-001  
  589.00  5.0769E-001  
  589.50  5.0859E-001  
  590.00  5.0990E-001  
  590.50  5.1142E-001  
  591.00  5.1296E-001  
  591.50  5.1471E-001  
  592.00  5.1681E-001  
  592.50  5.1815E-001  
  593.00  5.1901E-001  
  593.50  5.1959E-001  
  594.00  5.2056E-001  
  594.50  5.2202E-001  
  595.00  5.2284E-001  
  595.50  5.2383E-001  
  596.00  5.2430E-001  
  596.50  5.2460E-001  
  597.00  5.2471E-001  
  597.50  5.2483E-001  
  598.00  5.2507E-001  
  598.50  5.2522E-001  
  599.00  5.2573E-001  
  599.50  5.2659E-001  
  600.00  5.2726E-001  
  600.50  5.2766E-001  
  601.00  5.2828E-001  
  601.50  5.2874E-001  
  602.00  5.2914E-001  
  602.50  5.2892E-001  
  603.00  5.2880E-001  
  603.50  5.2862E-001  
  604.00  5.2892E-001  
  604.50  5.2885E-001  
  605.00  5.2888E-001  
  605.50  5.2866E-001  
  606.00  5.2822E-001  
  606.50  5.2879E-001  
  607.00  5.2883E-001  
  607.50  5.2920E-001  
  608.00  5.2846E-001  
  608.50  5.2774E-001  
  609.00  5.2675E-001  
  609.50  5.2614E-001  
  610.00  5.2609E-001  
  610.50  5.2547E-001  
  611.00  5.2491E-001  
  611.50  5.2416E-001  
  612.00  5.2416E-001  
  612.50  5.2338E-001  
  613.00  5.2182E-001  
  613.50  5.1998E-001  
  614.00  5.1884E-001  
  614.50  5.1790E-001  
  615.00  5.1648E-001  
  615.50  5.1535E-001  
  616.00  5.1375E-001  
  616.50  5.1231E-001  
  617.00  5.1055E-001  
  617.50  5.0911E-001  
  618.00  5.0781E-001  
  618.50  5.0592E-001  
  619.00  5.0392E-001  
  619.50  5.0258E-001  
  620.00  5.0118E-001  
  620.50  4.9942E-001  
  621.00  4.9747E-001  
  621.50  4.9539E-001  
  622.00  4.9374E-001  
  622.50  4.9128E-001  
  623.00  4.8925E-001  
  623.50  4.8716E-001  
  624.00  4.8469E-001  
  624.50  4.8193E-001  
  625.00  4.7901E-001  
  625.50  4.7617E-001  
  626.00  4.7363E-001  
  626.50  4.7138E-001  
  627.00  4.6955E-001  
  627.50  4.6713E-001  
  628.00  4.6497E-001  
  628.50  4.6296E-001  
  629.00  4.6048E-001  
  629.50  4.5818E-001  
  630.00  4.5594E-001  
  630.50  4.5361E-001  
  631.00  4.5157E-001  
  631.50  4.4946E-001  
  632.00  4.4711E-001  
  632.50  4.4357E-001  
  633.00  4.4000E-001  
  633.50  4.3733E-001  
  634.00  4.3517E-001  
  634.50  4.3262E-001  
  635.00  4.2985E-001  
  635.50  4.2677E-001  
  636.00  4.2403E-001  
  636.50  4.2129E-001  
  637.00  4.1824E-001  
  637.50  4.1495E-001  
  638.00  4.1167E-001  
  638.50  4.0896E-001  
  639.00  4.0607E-001  
  639.50  4.0297E-001  
  640.00  3.9975E-001  
  640.50  3.9654E-001  
  641.00  3.9375E-001  
  641.50  3.9074E-001  
  642.00  3.8805E-001  
  642.50  3.8511E-001  
  643.00  3.8197E-001  
  643.50  3.7915E-001  
  644.00  3.7630E-001  
  644.50  3.7356E-001  
  645.00  3.6981E-001  
  645.50  3.6588E-001  
  646.00  3.6218E-001  
  646.50  3.5975E-001  
  647.00  3.5731E-001  
  647.50  3.5473E-001  
  648.00  3.5115E-001  
  648.50  3.4759E-001  
  649.00  3.4472E-001  
  649.50  3.4190E-001  
  650.00  3.3919E-001  
  650.50  3.3619E-001  
  651.00  3.3297E-001  
  651.50  3.3014E-001  
  652.00  3.2780E-001  
  652.50  3.2521E-001  
  653.00  3.2205E-001  
  653.50  3.1828E-001  
  654.00  3.1509E-001  
  654.50  3.1196E-001  
  655.00  3.0862E-001  
  655.50  3.0522E-001  
  656.00  3.0209E-001  
  656.50  2.9905E-001  
  657.00  2.9559E-001  
  657.50  2.9260E-001  
  658.00  2.8951E-001  
  658.50  2.8675E-001  
  659.00  2.8316E-001  
  659.50  2.7964E-001  
  660.00  2.7656E-001  
  660.50  2.7361E-001  
  661.00  2.7085E-001  
  661.50  2.6834E-001  
  662.00  2.6587E-001  
  662.50  2.6297E-001  
  663.00  2.5961E-001  
  663.50  2.5664E-001  
  664.00  2.5400E-001  
  664.50  2.5106E-001  
  665.00  2.4768E-001  
  665.50  2.4440E-001  
  666.00  2.4123E-001  
  666.50  2.3838E-001  
  667.00  2.3541E-001  
  667.50  2.3261E-001  
  668.00  2.2988E-001  
  668.50  2.2757E-001  
  669.00  2.2529E-001  
  669.50  2.2272E-001  
  670.00  2.1951E-001  
  670.50  2.1636E-001  
  671.00  2.1334E-001  
  671.50  2.1083E-001  
  672.00  2.0837E-001  
  672.50  2.0582E-001  
  673.00  2.0323E-001  
  673.50  2.0068E-001  
  674.00  1.9830E-001  
  674.50  1.9615E-001  
  675.00  1.9396E-001  
  675.50  1.9167E-001  
  676.00  1.8900E-001  
  676.50  1.8612E-001  
  677.00  1.8323E-001  
  677.50  1.8064E-001  
  678.00  1.7849E-001  
  678.50  1.7620E-001  
  679.00  1.7393E-001  
  679.50  1.7153E-001  
  680.00  1.6944E-001  
  680.50  1.6764E-001  
  681.00  1.6545E-001  
  681.50  1.6289E-001  
  682.00  1.6020E-001  
  682.50  1.5813E-001  
  683.00  1.5603E-001  
  683.50  1.5361E-001  
  684.00  1.5122E-001  
  684.50  1.4930E-001  
  685.00  1.4691E-001  
  685.50  1.4478E-001  
  686.00  1.4274E-001  
  686.50  1.4136E-001  
  687.00  1.3991E-001  
  687.50  1.3843E-001  
  688.00  1.3669E-001  
  688.50  1.3484E-001  
  689.00  1.3262E-001  
  689.50  1.3067E-001  
  690.00  1.2893E-001  
  690.50  1.2744E-001  
  691.00  1.2520E-001  
  691.50  1.2245E-001  
  692.00  1.2027E-001  
  692.50  1.1866E-001  
  693.00  1.1737E-001  
  693.50  1.1600E-001  
  694.00  1.1453E-001  
  694.50  1.1294E-001  
  695.00  1.1125E-001  
  695.50  1.0980E-001  
  696.00  1.0814E-001  
  696.50  1.0655E-001  
  697.00  1.0499E-001  
  697.50  1.0344E-001  
  698.00  1.0183E-001  
  698.50  1.0022E-001  
  699.00  9.9120E-002  
  699.50  9.8227E-002  
  700.00  9.7010E-002  
  700.50  9.5223E-002  
  701.00  9.3419E-002  
  701.50  9.2086E-002  
  702.00  9.1121E-002  
  702.50  9.0086E-002  
  703.00  8.8754E-002  
  703.50  8.7115E-002  
  704.00  8.5224E-002  
  704.50  8.3577E-002  
  705.00  8.2419E-002  
  705.50  8.1833E-002  
  706.00  8.0885E-002  
  706.50  7.9876E-002  
  707.00  7.8514E-002  
  707.50  7.7366E-002  
  708.00  7.5742E-002  
  708.50  7.4654E-002  
  709.00  7.3632E-002  
  709.50  7.3204E-002  
  710.00  7.2190E-002  
  710.50  7.1102E-002  
  711.00  6.9476E-002  
  711.50  6.8400E-002  
  712.00  6.7343E-002  
  712.50  6.6515E-002  
  713.00  6.5484E-002  
  713.50  6.4418E-002  
  714.00  6.3792E-002  
  714.50  6.2804E-002  
  715.00  6.1878E-002  
  715.50  6.0590E-002  
  716.00  5.9707E-002  
  716.50  5.8799E-002  
  717.00  5.7906E-002  
  717.50  5.6922E-002  
  718.00  5.5946E-002  
  718.50  5.5001E-002  
  719.00  5.4301E-002  
  719.50  5.3947E-002  
  720.00  5.3448E-002  
  720.50  5.2431E-002  
  721.00  5.1367E-002  
  721.50  5.0557E-002  
  722.00  5.0141E-002  
  722.50  4.9486E-002  
  723.00  4.8780E-002  
  723.50  4.7834E-002  
  724.00  4.7024E-002  
  724.50  4.6219E-002  
  725.00  4.5432E-002  
  725.50  4.4416E-002  
  726.00  4.3376E-002  
  726.50  4.2598E-002  
  727.00  4.2221E-002  
  727.50  4.1881E-002  
  728.00  4.0913E-002  
  728.50  4.0205E-002  
  729.00  3.9819E-002  
  729.50  3.9548E-002  
  730.00  3.8891E-002  
  730.50  3.8179E-002  
  731.00  3.7522E-002  
  731.50  3.6824E-002  
  732.00  3.6080E-002  
  732.50  3.5427E-002  
  733.00  3.5036E-002  
  733.50  3.4458E-002  
  734.00  3.3789E-002  
  734.50  3.3488E-002  
  735.00  3.3423E-002  
  735.50  3.3200E-002  
  736.00  3.2219E-002  
  736.50  3.1459E-002  
  737.00  3.0834E-002  
  737.50  3.0317E-002  
  738.00  2.9686E-002  
  738.50  2.9422E-002  
  739.00  2.9380E-002  
  739.50  2.9248E-002  
  740.00  2.9064E-002  
  740.50  2.8946E-002  
  741.00  2.8438E-002  
  741.50  2.7888E-002  
  742.00  2.7560E-002  
  742.50  2.7434E-002  
  743.00  2.7072E-002  
  743.50  2.6202E-002  
  744.00  2.5390E-002  
  744.50  2.4803E-002  
  745.00  2.4478E-002  
  745.50  2.4066E-002  
  746.00  2.3903E-002  
  746.50  2.3441E-002  
  747.00  2.3243E-002  
  747.50  2.2749E-002  
  748.00  2.2159E-002  
  748.50  2.1226E-002  
  749.00  2.0939E-002  
  749.50  2.1115E-002  
  750.00  2.1123E-002  
  750.50  2.0651E-002  
  751.00  2.0500E-002  
  751.50  2.0292E-002  
  752.00  2.0229E-002  
  752.50  1.9772E-002  
  753.00  1.9155E-002  
  753.50  1.8532E-002  
  754.00  1.8151E-002  
  754.50  1.8078E-002  
  755.00  1.7886E-002  
  755.50  1.7736E-002  
  756.00  1.7910E-002  
  756.50  1.7635E-002  
  757.00  1.6818E-002  
  757.50  1.6098E-002  
  758.00  1.5996E-002  
  758.50  1.5844E-002  
  759.00  1.5421E-002  
  759.50  1.5050E-002  
  760.00  1.5147E-002  
  760.50  1.5332E-002  
  761.00  1.5373E-002  
  761.50  1.4880E-002  
  762.00  1.3992E-002  
  762.50  1.3469E-002  
  763.00  1.3575E-002  
  763.50  1.3501E-002  
  764.00  1.3530E-002  
  764.50  1.3219E-002  
  765.00  1.2594E-002  
  765.50  1.2190E-002  
  766.00  1.2196E-002  
  766.50  1.2036E-002  
  767.00  1.1905E-002  
  767.50  1.1983E-002  
  768.00  1.1930E-002  
  768.50  1.1468E-002  
  769.00  1.0889E-002  
  769.50  1.0481E-002  
  770.00  1.0373E-002  
  770.50  1.1021E-002  
  771.00  1.1260E-002  
  771.50  1.0747E-002  
  772.00  1.0266E-002  
  772.50  1.0391E-002  
  773.00  1.0729E-002  
  773.50  1.0804E-002  
  774.00  1.0537E-002  
  774.50  1.0457E-002  
  775.00  1.0359E-002  
  775.50  1.0206E-002  
  776.00  1.0209E-002  
  776.50  9.9858E-003  
  777.00  9.9350E-003  
  777.50  9.6285E-003  
  778.00  9.6662E-003  
  778.50  9.4061E-003  
  779.00  8.6771E-003  
  779.50  7.9548E-003  
  780.00  7.9218E-003  
  780.50  7.9767E-003  
  781.00  7.9309E-003  
  781.50  8.0290E-003  
  782.00  8.1496E-003  
  782.50  8.0308E-003  
  783.00  7.7028E-003  
  783.50  7.5388E-003  
  784.00  7.4049E-003  
  784.50  6.8776E-003  
  785.00  6.3384E-003  
  785.50  5.9854E-003  
  786.00  6.8003E-003  
  786.50  7.2287E-003  
  787.00  6.7704E-003  
  787.50  6.2581E-003  
  788.00  6.4354E-003  
  788.50  6.9705E-003  
  789.00  6.7167E-003  
  789.50  5.8611E-003  
  790.00  5.6833E-003  
  790.50  5.4359E-003  
  791.00  5.5588E-003  
  791.50  4.9720E-003  
  792.00  4.9321E-003  
  792.50  4.9778E-003  
  793.00  6.1197E-003  
  793.50  6.7942E-003  
  794.00  6.4584E-003  
  794.50  5.0220E-003  
  795.00  4.5547E-003  
  795.50  4.6879E-003  
  796.00  4.6532E-003  
  796.50  4.5085E-003  
  797.00  4.3308E-003  
  797.50  3.8415E-003  
  798.00  3.7206E-003  
  798.50  4.2242E-003  
  799.00  4.7187E-003  
  799.50  5.0647E-003  
  800.00  4.8941E-003  
  800.50  4.3050E-003  
  801.00  4.0653E-003  
  801.50  3.7146E-003  
  802.00  4.3751E-003  
  802.50  4.8676E-003  
  803.00  4.9449E-003  
  803.50  4.3306E-003  
  804.00  4.3736E-003  
  804.50  4.1966E-003  
  805.00  4.1043E-003  
  805.50  3.5083E-003  
  806.00  3.9219E-003  
  806.50  3.5461E-003  
  807.00  3.4614E-003  
  807.50  2.7610E-003  
  808.00  2.8024E-003  
  808.50  2.7112E-003  
  809.00  2.5720E-003  
  809.50  2.7695E-003  
  810.00  3.9028E-003  
  810.50  3.6947E-003  
  811.00  2.3655E-003  
  811.50  1.5810E-003  
  812.00  2.7710E-003  
  812.50  2.8052E-003  
  813.00  2.0022E-003  
  813.50  1.4652E-003  
  814.00  1.6549E-003  
  814.50  1.8719E-003  
  815.00  2.2483E-003  
  815.50  2.3305E-003  
  816.00  2.2252E-003  
  816.50  1.5136E-003  
  817.00  6.2195E-004  
  817.50  1.2753E-003  
  818.00  2.2365E-003  
  818.50  3.4762E-003  
  819.00  2.5184E-003  
  819.50  2.0031E-003  
  820.00  1.0105E-003  
  820.50  1.0345E-003  
  821.00  1.7571E-003  
  821.50  1.6788E-003  
  822.00  1.4065E-003  
  822.50  1.4259E-003  
  823.00  1.0431E-003  
  823.50  1.8174E-003  
  824.00  1.9274E-003  
  824.50  6.8889E-004  
  825.00  0.0000E+000  
  825.50  0.0000E+000  
  826.00  7.9934E-004  
  826.50  1.2819E-003  
  827.00  1.7270E-003  
  827.50  2.4111E-003  
  828.00  3.7603E-003  
  828.50  4.3297E-003  
  829.00  3.5879E-003  
  829.50  2.7425E-003  
  830.00  2.6038E-003  
  830.50  1.5180E-003  
  831.00  2.1295E-004  
  831.50  7.2795E-004  
  832.00  1.2036E-003  
  832.50  6.4373E-004  
  833.00  7.7574E-004  
  833.50  1.8468E-003  
  834.00  1.7335E-003  
  834.50  1.4564E-003  
  835.00  1.9580E-003  
  835.50  2.0421E-003  
  836.00  1.0574E-003  
  836.50  9.6464E-004  
  837.00  7.9829E-004  
  837.50  1.5732E-003  
  838.00  1.7443E-003  
  838.50  1.2538E-003  
  839.00  4.1683E-004  
  839.50  0.0000E+000  
  840.00  0.0000E+000  
  840.50  6.4778E-004  
  841.00  1.4690E-003  
  841.50  2.1798E-003  
  842.00  2.2576E-003  
  842.50  1.1707E-003  
  843.00  1.3822E-003  
  843.50  2.1711E-003  
  844.00  2.1698E-003  
  844.50  9.8141E-004  
  845.00  2.4036E-004  
  845.50  1.1079E-003  
  846.00  2.7373E-003  
  846.50  3.2711E-003  
  847.00  2.7864E-003  
  847.50  1.5056E-003  
  848.00  6.8585E-005  
  848.50  0.0000E+000  
  849.00  1.3568E-003  
  849.50  2.9615E-003  
  850.00  1.7140E-003  
  850.50  6.4495E-004  
  851.00  2.3953E-005  
  851.50  1.2881E-004  
  852.00  3.2101E-005  
  852.50  6.1682E-004  
  853.00  4.3340E-004  
  853.50  0.0000E+000  
  854.00  0.0000E+000  
  854.50  0.0000E+000  
  855.00  2.9128E-004  
  855.50  9.9864E-004  
  856.00  2.0145E-003  
  856.50  1.9012E-003  
  857.00  1.2746E-004  
  857.50  0.0000E+000  
  858.00  0.0000E+000  
  858.50  0.0000E+000  
  859.00  1.3060E-004  
  859.50  2.1501E-004  
  860.00  7.5845E-005  
  860.50  4.1190E-005  
  861.00  0.0000E+000  
  861.50  8.4381E-006  
  862.00  1.1862E-003  
  862.50  2.1042E-003  
  863.00  1.6257E-003  
  863.50  1.7488E-003  
  864.00  9.7500E-004  
  864.50  0.0000E+000  
  865.00  0.0000E+000  
  865.50  0.0000E+000  
  866.00  0.0000E+000  
  866.50  0.0000E+000  
  867.00  0.0000E+000  
  867.50  0.0000E+000  
  868.00  1.0668E-003  
  868.50  3.5409E-003  
  869.00  3.2756E-003  
  869.50  2.5119E-003  
  870.00  2.9195E-003  
  870.50  2.6214E-003  
  871.00  5.9408E-004  
  871.50  1.3167E-003  
  872.00  2.1103E-003  
  872.50  1.5034E-003  
  873.00  1.2110E-003  
  873.50  8.5243E-004  
  874.00  5.1442E-004  
  874.50  1.6742E-003  
  875.00  5.1064E-004  
  875.50  4.2825E-004  
  876.00  2.6547E-003  
  876.50  3.4881E-003  
  877.00  2.9360E-003  
  877.50  5.4794E-003  
  878.00  5.0459E-003  
  878.50  7.8117E-004  
  879.00  0.0000E+000  
  879.50  3.3572E-004  
  880.00  2.5819E-005  
  880.50  6.0782E-005  
  881.00  1.7737E-003  
  881.50  4.6645E-003  
  882.00  5.4674E-003  
  882.50  3.9363E-003  
  883.00  3.8826E-003  
  883.50  3.1311E-003  
  884.00  1.9163E-003  
  884.50  1.7514E-003  
  885.00  1.8216E-003  
  885.50  2.6741E-004  
  886.00  0.0000E+000  
  886.50  0.0000E+000  
  887.00  0.0000E+000  
  887.50  0.0000E+000  
  888.00  5.9459E-005  
  888.50  0.0000E+000  
  889.00  0.0000E+000  
  889.50  1.0422E-003  
  890.00  3.8568E-003  
  890.50  6.3463E-003  
  891.00  6.6830E-003  
  891.50  4.5565E-003  
  892.00  4.5639E-003  
  892.50  5.8432E-003  
  893.00  4.7716E-003  
  893.50  1.4500E-003  
  894.00  0.0000E+000  
  894.50  6.6113E-004  
  895.00  2.1805E-003  
  895.50  5.3768E-003  
  896.00  7.2549E-003  
  896.50  6.5270E-003  
  897.00  5.7861E-003  
  897.50  5.3604E-003  
  898.00  4.1550E-003  
  898.50  3.0945E-003  
  899.00  1.1456E-003  
  899.50  2.5192E-005  
