
# From lspdd.org
# 
# Name: INC Sylvania A19 -
# Indice spectral Valeur 
# MSI 0.08 
# SLI 0.26 
# IPI 0.90 
# Pourcentage de bleu 2.8 
# Caractéristique Valeur 
# CCT calculée (K) 1906 
# CCT du fabricant (K) 1900 
# Tension (V) 120 
# Puissance (W) 60.0 
# Efficacité lumineuse (Lum/W) ND 
#
# Image: '/app/system/img_1s/2775/medium_image1.jpg?1622001368'
# 

  273.00  0.0000E+000  
  273.50  0.0000E+000  
  274.00  0.0000E+000  
  274.50  0.0000E+000  
  275.00  0.0000E+000  
  275.50  0.0000E+000  
  276.00  0.0000E+000  
  276.50  0.0000E+000  
  277.00  0.0000E+000  
  277.50  0.0000E+000  
  278.00  0.0000E+000  
  278.50  0.0000E+000  
  279.00  0.0000E+000  
  279.50  0.0000E+000  
  280.00  0.0000E+000  
  280.50  0.0000E+000  
  281.00  0.0000E+000  
  281.50  0.0000E+000  
  282.00  0.0000E+000  
  282.50  0.0000E+000  
  283.00  0.0000E+000  
  283.50  0.0000E+000  
  284.00  0.0000E+000  
  284.50  0.0000E+000  
  285.00  0.0000E+000  
  285.50  0.0000E+000  
  286.00  0.0000E+000  
  286.50  0.0000E+000  
  287.00  0.0000E+000  
  287.50  0.0000E+000  
  288.00  0.0000E+000  
  288.50  0.0000E+000  
  289.00  0.0000E+000  
  289.50  0.0000E+000  
  290.00  0.0000E+000  
  290.50  0.0000E+000  
  291.00  0.0000E+000  
  291.50  0.0000E+000  
  292.00  0.0000E+000  
  292.50  0.0000E+000  
  293.00  0.0000E+000  
  293.50  0.0000E+000  
  294.00  0.0000E+000  
  294.50  0.0000E+000  
  295.00  0.0000E+000  
  295.50  0.0000E+000  
  296.00  0.0000E+000  
  296.50  0.0000E+000  
  297.00  0.0000E+000  
  297.50  0.0000E+000  
  298.00  0.0000E+000  
  298.50  0.0000E+000  
  299.00  0.0000E+000  
  299.50  0.0000E+000  
  300.00  0.0000E+000  
  300.50  0.0000E+000  
  301.00  0.0000E+000  
  301.50  0.0000E+000  
  302.00  0.0000E+000  
  302.50  0.0000E+000  
  303.00  8.5559E-005  
  303.50  2.0072E-004  
  304.00  6.4131E-005  
  304.50  0.0000E+000  
  305.00  0.0000E+000  
  305.50  2.4848E-005  
  306.00  2.8120E-004  
  306.50  3.2041E-004  
  307.00  2.0693E-004  
  307.50  1.3195E-004  
  308.00  1.9701E-004  
  308.50  9.3159E-005  
  309.00  8.9934E-006  
  309.50  0.0000E+000  
  310.00  0.0000E+000  
  310.50  0.0000E+000  
  311.00  0.0000E+000  
  311.50  0.0000E+000  
  312.00  0.0000E+000  
  312.50  2.6771E-004  
  313.00  4.8922E-004  
  313.50  3.7667E-004  
  314.00  9.7845E-005  
  314.50  0.0000E+000  
  315.00  0.0000E+000  
  315.50  0.0000E+000  
  316.00  0.0000E+000  
  316.50  0.0000E+000  
  317.00  0.0000E+000  
  317.50  0.0000E+000  
  318.00  0.0000E+000  
  318.50  0.0000E+000  
  319.00  0.0000E+000  
  319.50  0.0000E+000  
  320.00  0.0000E+000  
  320.50  0.0000E+000  
  321.00  0.0000E+000  
  321.50  0.0000E+000  
  322.00  0.0000E+000  
  322.50  0.0000E+000  
  323.00  0.0000E+000  
  323.50  0.0000E+000  
  324.00  0.0000E+000  
  324.50  0.0000E+000  
  325.00  0.0000E+000  
  325.50  0.0000E+000  
  326.00  0.0000E+000  
  326.50  0.0000E+000  
  327.00  0.0000E+000  
  327.50  4.1963E-005  
  328.00  2.4960E-004  
  328.50  3.5011E-004  
  329.00  2.8536E-004  
  329.50  1.2075E-004  
  330.00  0.0000E+000  
  330.50  0.0000E+000  
  331.00  0.0000E+000  
  331.50  0.0000E+000  
  332.00  0.0000E+000  
  332.50  0.0000E+000  
  333.00  0.0000E+000  
  333.50  0.0000E+000  
  334.00  0.0000E+000  
  334.50  0.0000E+000  
  335.00  0.0000E+000  
  335.50  0.0000E+000  
  336.00  0.0000E+000  
  336.50  0.0000E+000  
  337.00  0.0000E+000  
  337.50  0.0000E+000  
  338.00  0.0000E+000  
  338.50  0.0000E+000  
  339.00  0.0000E+000  
  339.50  0.0000E+000  
  340.00  0.0000E+000  
  340.50  0.0000E+000  
  341.00  0.0000E+000  
  341.50  0.0000E+000  
  342.00  0.0000E+000  
  342.50  0.0000E+000  
  343.00  0.0000E+000  
  343.50  0.0000E+000  
  344.00  0.0000E+000  
  344.50  0.0000E+000  
  345.00  0.0000E+000  
  345.50  2.3114E-005  
  346.00  1.0992E-004  
  346.50  3.5448E-004  
  347.00  3.7554E-004  
  347.50  2.8838E-004  
  348.00  1.4937E-004  
  348.50  0.0000E+000  
  349.00  0.0000E+000  
  349.50  0.0000E+000  
  350.00  0.0000E+000  
  350.50  0.0000E+000  
  351.00  1.9170E-008  
  351.50  1.8625E-005  
  352.00  8.6455E-006  
  352.50  0.0000E+000  
  353.00  0.0000E+000  
  353.50  0.0000E+000  
  354.00  0.0000E+000  
  354.50  6.0940E-005  
  355.00  1.4916E-004  
  355.50  9.3233E-005  
  356.00  1.0779E-005  
  356.50  0.0000E+000  
  357.00  0.0000E+000  
  357.50  0.0000E+000  
  358.00  0.0000E+000  
  358.50  0.0000E+000  
  359.00  0.0000E+000  
  359.50  0.0000E+000  
  360.00  0.0000E+000  
  360.50  0.0000E+000  
  361.00  0.0000E+000  
  361.50  0.0000E+000  
  362.00  0.0000E+000  
  362.50  0.0000E+000  
  363.00  0.0000E+000  
  363.50  0.0000E+000  
  364.00  0.0000E+000  
  364.50  0.0000E+000  
  365.00  0.0000E+000  
  365.50  0.0000E+000  
  366.00  0.0000E+000  
  366.50  0.0000E+000  
  367.00  0.0000E+000  
  367.50  0.0000E+000  
  368.00  0.0000E+000  
  368.50  0.0000E+000  
  369.00  0.0000E+000  
  369.50  0.0000E+000  
  370.00  0.0000E+000  
  370.50  0.0000E+000  
  371.00  6.2310E-005  
  371.50  1.8750E-004  
  372.00  2.5628E-004  
  372.50  1.5871E-004  
  373.00  0.0000E+000  
  373.50  0.0000E+000  
  374.00  0.0000E+000  
  374.50  0.0000E+000  
  375.00  0.0000E+000  
  375.50  0.0000E+000  
  376.00  0.0000E+000  
  376.50  0.0000E+000  
  377.00  4.2453E-005  
  377.50  3.6878E-005  
  378.00  1.9008E-004  
  378.50  2.1385E-004  
  379.00  8.9330E-005  
  379.50  1.2310E-006  
  380.00  0.0000E+000  
  380.50  0.0000E+000  
  381.00  4.0791E-005  
  381.50  0.0000E+000  
  382.00  1.6232E-005  
  382.50  6.2039E-005  
  383.00  3.2550E-005  
  383.50  5.2334E-005  
  384.00  0.0000E+000  
  384.50  0.0000E+000  
  385.00  3.5343E-006  
  385.50  2.5616E-004  
  386.00  5.1873E-004  
  386.50  5.0390E-004  
  387.00  3.0856E-004  
  387.50  1.6967E-004  
  388.00  6.3874E-005  
  388.50  0.0000E+000  
  389.00  0.0000E+000  
  389.50  0.0000E+000  
  390.00  5.7695E-005  
  390.50  1.8934E-004  
  391.00  2.3649E-004  
  391.50  1.4904E-004  
  392.00  0.0000E+000  
  392.50  0.0000E+000  
  393.00  0.0000E+000  
  393.50  8.0592E-005  
  394.00  1.7210E-004  
  394.50  2.0998E-004  
  395.00  2.3443E-004  
  395.50  3.1294E-004  
  396.00  2.1729E-004  
  396.50  8.9841E-005  
  397.00  6.8814E-006  
  397.50  0.0000E+000  
  398.00  0.0000E+000  
  398.50  0.0000E+000  
  399.00  0.0000E+000  
  399.50  0.0000E+000  
  400.00  0.0000E+000  
  400.50  0.0000E+000  
  401.00  1.4500E-004  
  401.50  3.0011E-004  
  402.00  4.6629E-004  
  402.50  4.7193E-004  
  403.00  2.9633E-004  
  403.50  1.8910E-004  
  404.00  9.8666E-005  
  404.50  1.3710E-004  
  405.00  1.3157E-004  
  405.50  3.0197E-004  
  406.00  4.3745E-004  
  406.50  3.2595E-004  
  407.00  1.7003E-004  
  407.50  7.2760E-005  
  408.00  8.0950E-005  
  408.50  2.7738E-004  
  409.00  3.2941E-004  
  409.50  2.6688E-004  
  410.00  6.5231E-005  
  410.50  0.0000E+000  
  411.00  0.0000E+000  
  411.50  0.0000E+000  
  412.00  1.0724E-004  
  412.50  5.0033E-004  
  413.00  6.7279E-004  
  413.50  6.8490E-004  
  414.00  6.3779E-004  
  414.50  4.4428E-004  
  415.00  4.1465E-004  
  415.50  2.5407E-004  
  416.00  6.9850E-005  
  416.50  3.8261E-005  
  417.00  3.2305E-005  
  417.50  1.9275E-004  
  418.00  2.0119E-004  
  418.50  3.0055E-004  
  419.00  4.1318E-004  
  419.50  6.0480E-004  
  420.00  6.7507E-004  
  420.50  4.6634E-004  
  421.00  2.6978E-004  
  421.50  1.4568E-004  
  422.00  2.5117E-004  
  422.50  4.2316E-004  
  423.00  4.5447E-004  
  423.50  5.2113E-004  
  424.00  4.9011E-004  
  424.50  5.4952E-004  
  425.00  6.8316E-004  
  425.50  7.3097E-004  
  426.00  7.2773E-004  
  426.50  5.7997E-004  
  427.00  3.1860E-004  
  427.50  3.1528E-004  
  428.00  4.1415E-004  
  428.50  6.5154E-004  
  429.00  7.6944E-004  
  429.50  5.9679E-004  
  430.00  4.7085E-004  
  430.50  5.1992E-004  
  431.00  6.0462E-004  
  431.50  8.9722E-004  
  432.00  1.0744E-003  
  432.50  1.0122E-003  
  433.00  1.0024E-003  
  433.50  7.7188E-004  
  434.00  9.0646E-004  
  434.50  1.1864E-003  
  435.00  1.3089E-003  
  435.50  1.3590E-003  
  436.00  1.2181E-003  
  436.50  1.0406E-003  
  437.00  9.7982E-004  
  437.50  8.4090E-004  
  438.00  8.9685E-004  
  438.50  1.0112E-003  
  439.00  1.0530E-003  
  439.50  1.0144E-003  
  440.00  1.0129E-003  
  440.50  1.1344E-003  
  441.00  1.3794E-003  
  441.50  1.6605E-003  
  442.00  1.5713E-003  
  442.50  1.4393E-003  
  443.00  1.2340E-003  
  443.50  1.2411E-003  
  444.00  1.4981E-003  
  444.50  1.5737E-003  
  445.00  1.6038E-003  
  445.50  1.3773E-003  
  446.00  1.3424E-003  
  446.50  1.2310E-003  
  447.00  1.4055E-003  
  447.50  1.6178E-003  
  448.00  1.8250E-003  
  448.50  1.9776E-003  
  449.00  1.9802E-003  
  449.50  1.9274E-003  
  450.00  1.8892E-003  
  450.50  1.8244E-003  
  451.00  1.8667E-003  
  451.50  1.8871E-003  
  452.00  1.9736E-003  
  452.50  2.0068E-003  
  453.00  1.9899E-003  
  453.50  1.9433E-003  
  454.00  1.8849E-003  
  454.50  1.8750E-003  
  455.00  2.0121E-003  
  455.50  2.2358E-003  
  456.00  2.4150E-003  
  456.50  2.5241E-003  
  457.00  2.5411E-003  
  457.50  2.5561E-003  
  458.00  2.5711E-003  
  458.50  2.5551E-003  
  459.00  2.6255E-003  
  459.50  2.6998E-003  
  460.00  2.9596E-003  
  460.50  3.0394E-003  
  461.00  3.1968E-003  
  461.50  3.3032E-003  
  462.00  3.3662E-003  
  462.50  3.4973E-003  
  463.00  3.4350E-003  
  463.50  3.5255E-003  
  464.00  3.6282E-003  
  464.50  3.7643E-003  
  465.00  3.8527E-003  
  465.50  3.8803E-003  
  466.00  3.8487E-003  
  466.50  3.9054E-003  
  467.00  3.9501E-003  
  467.50  4.2062E-003  
  468.00  4.4392E-003  
  468.50  4.6355E-003  
  469.00  4.6645E-003  
  469.50  4.6245E-003  
  470.00  4.7831E-003  
  470.50  4.9997E-003  
  471.00  5.2710E-003  
  471.50  5.4980E-003  
  472.00  5.6344E-003  
  472.50  5.7174E-003  
  473.00  5.8300E-003  
  473.50  5.9956E-003  
  474.00  6.2174E-003  
  474.50  6.4613E-003  
  475.00  6.5636E-003  
  475.50  6.4267E-003  
  476.00  6.2180E-003  
  476.50  6.2024E-003  
  477.00  6.4665E-003  
  477.50  6.8070E-003  
  478.00  7.1564E-003  
  478.50  7.3694E-003  
  479.00  7.5907E-003  
  479.50  7.8028E-003  
  480.00  8.0670E-003  
  480.50  8.3624E-003  
  481.00  8.6418E-003  
  481.50  9.0018E-003  
  482.00  9.2214E-003  
  482.50  9.4814E-003  
  483.00  9.7197E-003  
  483.50  1.0004E-002  
  484.00  1.0344E-002  
  484.50  1.0545E-002  
  485.00  1.0822E-002  
  485.50  1.1027E-002  
  486.00  1.1259E-002  
  486.50  1.1567E-002  
  487.00  1.1815E-002  
  487.50  1.2086E-002  
  488.00  1.2275E-002  
  488.50  1.2452E-002  
  489.00  1.2681E-002  
  489.50  1.2993E-002  
  490.00  1.3280E-002  
  490.50  1.3673E-002  
  491.00  1.4011E-002  
  491.50  1.4404E-002  
  492.00  1.4703E-002  
  492.50  1.5040E-002  
  493.00  1.5284E-002  
  493.50  1.5589E-002  
  494.00  1.5960E-002  
  494.50  1.6304E-002  
  495.00  1.6750E-002  
  495.50  1.7256E-002  
  496.00  1.7732E-002  
  496.50  1.8216E-002  
  497.00  1.8736E-002  
  497.50  1.9223E-002  
  498.00  1.9752E-002  
  498.50  2.0103E-002  
  499.00  2.0482E-002  
  499.50  2.0884E-002  
  500.00  2.1401E-002  
  500.50  2.1963E-002  
  501.00  2.2525E-002  
  501.50  2.3165E-002  
  502.00  2.3765E-002  
  502.50  2.4416E-002  
  503.00  2.5069E-002  
  503.50  2.5682E-002  
  504.00  2.6318E-002  
  504.50  2.7006E-002  
  505.00  2.7638E-002  
  505.50  2.8218E-002  
  506.00  2.8730E-002  
  506.50  2.9313E-002  
  507.00  2.9990E-002  
  507.50  3.0749E-002  
  508.00  3.1487E-002  
  508.50  3.2333E-002  
  509.00  3.3220E-002  
  509.50  3.4011E-002  
  510.00  3.4903E-002  
  510.50  3.5736E-002  
  511.00  3.6639E-002  
  511.50  3.7518E-002  
  512.00  3.8309E-002  
  512.50  3.9151E-002  
  513.00  3.9949E-002  
  513.50  4.0680E-002  
  514.00  4.1463E-002  
  514.50  4.2467E-002  
  515.00  4.3586E-002  
  515.50  4.4884E-002  
  516.00  4.5862E-002  
  516.50  4.6857E-002  
  517.00  4.7893E-002  
  517.50  4.8988E-002  
  518.00  5.0094E-002  
  518.50  5.1195E-002  
  519.00  5.2420E-002  
  519.50  5.3798E-002  
  520.00  5.5111E-002  
  520.50  5.6445E-002  
  521.00  5.7728E-002  
  521.50  5.8994E-002  
  522.00  6.0141E-002  
  522.50  6.1316E-002  
  523.00  6.2573E-002  
  523.50  6.4069E-002  
  524.00  6.5464E-002  
  524.50  6.7031E-002  
  525.00  6.8675E-002  
  525.50  7.0355E-002  
  526.00  7.1802E-002  
  526.50  7.3052E-002  
  527.00  7.4466E-002  
  527.50  7.6111E-002  
  528.00  7.7869E-002  
  528.50  7.9597E-002  
  529.00  8.1078E-002  
  529.50  8.2601E-002  
  530.00  8.4230E-002  
  530.50  8.5995E-002  
  531.00  8.7877E-002  
  531.50  8.9763E-002  
  532.00  9.1649E-002  
  532.50  9.3443E-002  
  533.00  9.5218E-002  
  533.50  9.6943E-002  
  534.00  9.8674E-002  
  534.50  1.0056E-001  
  535.00  1.0243E-001  
  535.50  1.0450E-001  
  536.00  1.0640E-001  
  536.50  1.0853E-001  
  537.00  1.1062E-001  
  537.50  1.1289E-001  
  538.00  1.1507E-001  
  538.50  1.1687E-001  
  539.00  1.1861E-001  
  539.50  1.2045E-001  
  540.00  1.2269E-001  
  540.50  1.2517E-001  
  541.00  1.2760E-001  
  541.50  1.2972E-001  
  542.00  1.3184E-001  
  542.50  1.3387E-001  
  543.00  1.3623E-001  
  543.50  1.3853E-001  
  544.00  1.4073E-001  
  544.50  1.4286E-001  
  545.00  1.4489E-001  
  545.50  1.4696E-001  
  546.00  1.4923E-001  
  546.50  1.5130E-001  
  547.00  1.5367E-001  
  547.50  1.5577E-001  
  548.00  1.5810E-001  
  548.50  1.6083E-001  
  549.00  1.6370E-001  
  549.50  1.6636E-001  
  550.00  1.6835E-001  
  550.50  1.7033E-001  
  551.00  1.7261E-001  
  551.50  1.7499E-001  
  552.00  1.7708E-001  
  552.50  1.7927E-001  
  553.00  1.8183E-001  
  553.50  1.8453E-001  
  554.00  1.8719E-001  
  554.50  1.8925E-001  
  555.00  1.9130E-001  
  555.50  1.9332E-001  
  556.00  1.9566E-001  
  556.50  1.9805E-001  
  557.00  2.0064E-001  
  557.50  2.0297E-001  
  558.00  2.0520E-001  
  558.50  2.0733E-001  
  559.00  2.0979E-001  
  559.50  2.1210E-001  
  560.00  2.1497E-001  
  560.50  2.1708E-001  
  561.00  2.1958E-001  
  561.50  2.2197E-001  
  562.00  2.2392E-001  
  562.50  2.2632E-001  
  563.00  2.2839E-001  
  563.50  2.3116E-001  
  564.00  2.3383E-001  
  564.50  2.3633E-001  
  565.00  2.3856E-001  
  565.50  2.4106E-001  
  566.00  2.4317E-001  
  566.50  2.4512E-001  
  567.00  2.4671E-001  
  567.50  2.4836E-001  
  568.00  2.5007E-001  
  568.50  2.5202E-001  
  569.00  2.5423E-001  
  569.50  2.5640E-001  
  570.00  2.5833E-001  
  570.50  2.6009E-001  
  571.00  2.6195E-001  
  571.50  2.6401E-001  
  572.00  2.6607E-001  
  572.50  2.6854E-001  
  573.00  2.7083E-001  
  573.50  2.7300E-001  
  574.00  2.7467E-001  
  574.50  2.7690E-001  
  575.00  2.7912E-001  
  575.50  2.8142E-001  
  576.00  2.8330E-001  
  576.50  2.8493E-001  
  577.00  2.8685E-001  
  577.50  2.8839E-001  
  578.00  2.9003E-001  
  578.50  2.9194E-001  
  579.00  2.9372E-001  
  579.50  2.9567E-001  
  580.00  2.9769E-001  
  580.50  2.9945E-001  
  581.00  3.0152E-001  
  581.50  3.0325E-001  
  582.00  3.0513E-001  
  582.50  3.0672E-001  
  583.00  3.0810E-001  
  583.50  3.0942E-001  
  584.00  3.1097E-001  
  584.50  3.1248E-001  
  585.00  3.1417E-001  
  585.50  3.1541E-001  
  586.00  3.1710E-001  
  586.50  3.1863E-001  
  587.00  3.2061E-001  
  587.50  3.2283E-001  
  588.00  3.2459E-001  
  588.50  3.2640E-001  
  589.00  3.2732E-001  
  589.50  3.2854E-001  
  590.00  3.2985E-001  
  590.50  3.3167E-001  
  591.00  3.3351E-001  
  591.50  3.3572E-001  
  592.00  3.3792E-001  
  592.50  3.3932E-001  
  593.00  3.4065E-001  
  593.50  3.4148E-001  
  594.00  3.4314E-001  
  594.50  3.4485E-001  
  595.00  3.4640E-001  
  595.50  3.4786E-001  
  596.00  3.4909E-001  
  596.50  3.5009E-001  
  597.00  3.5113E-001  
  597.50  3.5206E-001  
  598.00  3.5288E-001  
  598.50  3.5408E-001  
  599.00  3.5552E-001  
  599.50  3.5737E-001  
  600.00  3.5872E-001  
  600.50  3.5972E-001  
  601.00  3.6094E-001  
  601.50  3.6201E-001  
  602.00  3.6289E-001  
  602.50  3.6377E-001  
  603.00  3.6460E-001  
  603.50  3.6546E-001  
  604.00  3.6680E-001  
  604.50  3.6802E-001  
  605.00  3.6983E-001  
  605.50  3.7094E-001  
  606.00  3.7163E-001  
  606.50  3.7251E-001  
  607.00  3.7351E-001  
  607.50  3.7463E-001  
  608.00  3.7541E-001  
  608.50  3.7611E-001  
  609.00  3.7700E-001  
  609.50  3.7782E-001  
  610.00  3.7925E-001  
  610.50  3.8021E-001  
  611.00  3.8180E-001  
  611.50  3.8266E-001  
  612.00  3.8427E-001  
  612.50  3.8481E-001  
  613.00  3.8511E-001  
  613.50  3.8524E-001  
  614.00  3.8613E-001  
  614.50  3.8732E-001  
  615.00  3.8776E-001  
  615.50  3.8846E-001  
  616.00  3.8897E-001  
  616.50  3.9005E-001  
  617.00  3.9056E-001  
  617.50  3.9118E-001  
  618.00  3.9122E-001  
  618.50  3.9155E-001  
  619.00  3.9221E-001  
  619.50  3.9326E-001  
  620.00  3.9395E-001  
  620.50  3.9435E-001  
  621.00  3.9502E-001  
  621.50  3.9564E-001  
  622.00  3.9570E-001  
  622.50  3.9552E-001  
  623.00  3.9591E-001  
  623.50  3.9632E-001  
  624.00  3.9676E-001  
  624.50  3.9666E-001  
  625.00  3.9642E-001  
  625.50  3.9642E-001  
  626.00  3.9701E-001  
  626.50  3.9789E-001  
  627.00  3.9820E-001  
  627.50  3.9805E-001  
  628.00  3.9813E-001  
  628.50  3.9916E-001  
  629.00  3.9969E-001  
  629.50  4.0025E-001  
  630.00  4.0020E-001  
  630.50  4.0021E-001  
  631.00  4.0022E-001  
  631.50  4.0089E-001  
  632.00  4.0168E-001  
  632.50  4.0219E-001  
  633.00  4.0176E-001  
  633.50  4.0141E-001  
  634.00  4.0154E-001  
  634.50  4.0177E-001  
  635.00  4.0157E-001  
  635.50  4.0142E-001  
  636.00  4.0197E-001  
  636.50  4.0251E-001  
  637.00  4.0287E-001  
  637.50  4.0285E-001  
  638.00  4.0314E-001  
  638.50  4.0305E-001  
  639.00  4.0222E-001  
  639.50  4.0199E-001  
  640.00  4.0242E-001  
  640.50  4.0267E-001  
  641.00  4.0296E-001  
  641.50  4.0246E-001  
  642.00  4.0315E-001  
  642.50  4.0405E-001  
  643.00  4.0444E-001  
  643.50  4.0462E-001  
  644.00  4.0379E-001  
  644.50  4.0343E-001  
  645.00  4.0313E-001  
  645.50  4.0287E-001  
  646.00  4.0300E-001  
  646.50  4.0320E-001  
  647.00  4.0365E-001  
  647.50  4.0354E-001  
  648.00  4.0280E-001  
  648.50  4.0214E-001  
  649.00  4.0232E-001  
  649.50  4.0253E-001  
  650.00  4.0252E-001  
  650.50  4.0242E-001  
  651.00  4.0285E-001  
  651.50  4.0296E-001  
  652.00  4.0313E-001  
  652.50  4.0239E-001  
  653.00  4.0185E-001  
  653.50  4.0085E-001  
  654.00  4.0107E-001  
  654.50  4.0146E-001  
  655.00  4.0093E-001  
  655.50  3.9992E-001  
  656.00  3.9907E-001  
  656.50  3.9898E-001  
  657.00  3.9871E-001  
  657.50  3.9870E-001  
  658.00  3.9869E-001  
  658.50  3.9906E-001  
  659.00  3.9913E-001  
  659.50  3.9864E-001  
  660.00  3.9794E-001  
  660.50  3.9701E-001  
  661.00  3.9668E-001  
  661.50  3.9576E-001  
  662.00  3.9478E-001  
  662.50  3.9457E-001  
  663.00  3.9443E-001  
  663.50  3.9472E-001  
  664.00  3.9464E-001  
  664.50  3.9373E-001  
  665.00  3.9288E-001  
  665.50  3.9186E-001  
  666.00  3.9115E-001  
  666.50  3.9032E-001  
  667.00  3.9006E-001  
  667.50  3.8999E-001  
  668.00  3.8937E-001  
  668.50  3.8857E-001  
  669.00  3.8848E-001  
  669.50  3.8817E-001  
  670.00  3.8699E-001  
  670.50  3.8701E-001  
  671.00  3.8667E-001  
  671.50  3.8613E-001  
  672.00  3.8427E-001  
  672.50  3.8396E-001  
  673.00  3.8459E-001  
  673.50  3.8452E-001  
  674.00  3.8299E-001  
  674.50  3.8153E-001  
  675.00  3.8093E-001  
  675.50  3.8073E-001  
  676.00  3.8032E-001  
  676.50  3.7937E-001  
  677.00  3.7805E-001  
  677.50  3.7709E-001  
  678.00  3.7635E-001  
  678.50  3.7635E-001  
  679.00  3.7545E-001  
  679.50  3.7467E-001  
  680.00  3.7394E-001  
  680.50  3.7413E-001  
  681.00  3.7349E-001  
  681.50  3.7284E-001  
  682.00  3.7212E-001  
  682.50  3.7217E-001  
  683.00  3.7165E-001  
  683.50  3.7046E-001  
  684.00  3.6935E-001  
  684.50  3.6838E-001  
  685.00  3.6816E-001  
  685.50  3.6837E-001  
  686.00  3.6808E-001  
  686.50  3.6788E-001  
  687.00  3.6764E-001  
  687.50  3.6863E-001  
  688.00  3.6878E-001  
  688.50  3.6771E-001  
  689.00  3.6580E-001  
  689.50  3.6477E-001  
  690.00  3.6476E-001  
  690.50  3.6540E-001  
  691.00  3.6477E-001  
  691.50  3.6338E-001  
  692.00  3.6148E-001  
  692.50  3.5955E-001  
  693.00  3.5822E-001  
  693.50  3.5799E-001  
  694.00  3.5884E-001  
  694.50  3.5834E-001  
  695.00  3.5660E-001  
  695.50  3.5531E-001  
  696.00  3.5555E-001  
  696.50  3.5655E-001  
  697.00  3.5591E-001  
  697.50  3.5515E-001  
  698.00  3.5362E-001  
  698.50  3.5295E-001  
  699.00  3.5178E-001  
  699.50  3.5087E-001  
  700.00  3.4967E-001  
  700.50  3.4926E-001  
  701.00  3.4976E-001  
  701.50  3.5010E-001  
  702.00  3.4973E-001  
  702.50  3.4850E-001  
  703.00  3.4702E-001  
  703.50  3.4633E-001  
  704.00  3.4601E-001  
  704.50  3.4579E-001  
  705.00  3.4420E-001  
  705.50  3.4314E-001  
  706.00  3.4251E-001  
  706.50  3.4234E-001  
  707.00  3.4194E-001  
  707.50  3.4207E-001  
  708.00  3.4239E-001  
  708.50  3.4276E-001  
  709.00  3.4224E-001  
  709.50  3.4179E-001  
  710.00  3.4039E-001  
  710.50  3.3964E-001  
  711.00  3.3804E-001  
  711.50  3.3775E-001  
  712.00  3.3700E-001  
  712.50  3.3652E-001  
  713.00  3.3556E-001  
  713.50  3.3564E-001  
  714.00  3.3597E-001  
  714.50  3.3524E-001  
  715.00  3.3336E-001  
  715.50  3.3181E-001  
  716.00  3.3106E-001  
  716.50  3.3041E-001  
  717.00  3.2957E-001  
  717.50  3.2810E-001  
  718.00  3.2635E-001  
  718.50  3.2491E-001  
  719.00  3.2501E-001  
  719.50  3.2572E-001  
  720.00  3.2576E-001  
  720.50  3.2484E-001  
  721.00  3.2386E-001  
  721.50  3.2325E-001  
  722.00  3.2228E-001  
  722.50  3.2091E-001  
  723.00  3.1919E-001  
  723.50  3.1789E-001  
  724.00  3.1841E-001  
  724.50  3.1879E-001  
  725.00  3.1893E-001  
  725.50  3.1757E-001  
  726.00  3.1608E-001  
  726.50  3.1511E-001  
  727.00  3.1531E-001  
  727.50  3.1567E-001  
  728.00  3.1448E-001  
  728.50  3.1374E-001  
  729.00  3.1298E-001  
  729.50  3.1293E-001  
  730.00  3.1292E-001  
  730.50  3.1225E-001  
  731.00  3.1117E-001  
  731.50  3.1011E-001  
  732.00  3.0972E-001  
  732.50  3.0903E-001  
  733.00  3.0794E-001  
  733.50  3.0737E-001  
  734.00  3.0773E-001  
  734.50  3.0836E-001  
  735.00  3.0748E-001  
  735.50  3.0538E-001  
  736.00  3.0351E-001  
  736.50  3.0281E-001  
  737.00  3.0211E-001  
  737.50  3.0221E-001  
  738.00  3.0198E-001  
  738.50  3.0249E-001  
  739.00  3.0209E-001  
  739.50  3.0128E-001  
  740.00  2.9942E-001  
  740.50  2.9777E-001  
  741.00  2.9727E-001  
  741.50  2.9690E-001  
  742.00  2.9637E-001  
  742.50  2.9524E-001  
  743.00  2.9542E-001  
  743.50  2.9571E-001  
  744.00  2.9674E-001  
  744.50  2.9725E-001  
  745.00  2.9753E-001  
  745.50  2.9714E-001  
  746.00  2.9677E-001  
  746.50  2.9709E-001  
  747.00  2.9839E-001  
  747.50  2.9996E-001  
  748.00  3.0064E-001  
  748.50  3.0162E-001  
  749.00  3.0403E-001  
  749.50  3.0636E-001  
  750.00  3.0753E-001  
  750.50  3.0744E-001  
  751.00  3.0824E-001  
  751.50  3.0951E-001  
  752.00  3.1040E-001  
  752.50  3.1131E-001  
  753.00  3.1179E-001  
  753.50  3.1238E-001  
  754.00  3.1265E-001  
  754.50  3.1385E-001  
  755.00  3.1454E-001  
  755.50  3.1427E-001  
  756.00  3.1412E-001  
  756.50  3.1549E-001  
  757.00  3.1669E-001  
  757.50  3.1709E-001  
  758.00  3.1769E-001  
  758.50  3.1845E-001  
  759.00  3.1979E-001  
  759.50  3.2080E-001  
  760.00  3.2130E-001  
  760.50  3.2165E-001  
  761.00  3.2196E-001  
  761.50  3.2356E-001  
  762.00  3.2502E-001  
  762.50  3.2564E-001  
  763.00  3.2552E-001  
  763.50  3.2537E-001  
  764.00  3.2633E-001  
  764.50  3.2719E-001  
  765.00  3.2876E-001  
  765.50  3.2925E-001  
  766.00  3.2989E-001  
  766.50  3.3043E-001  
  767.00  3.3211E-001  
  767.50  3.3283E-001  
  768.00  3.3343E-001  
  768.50  3.3338E-001  
  769.00  3.3318E-001  
  769.50  3.3244E-001  
  770.00  3.3241E-001  
  770.50  3.3375E-001  
  771.00  3.3501E-001  
  771.50  3.3522E-001  
  772.00  3.3350E-001  
  772.50  3.3399E-001  
  773.00  3.3523E-001  
  773.50  3.3684E-001  
  774.00  3.3695E-001  
  774.50  3.3725E-001  
  775.00  3.3679E-001  
  775.50  3.3742E-001  
  776.00  3.3880E-001  
  776.50  3.3962E-001  
  777.00  3.3797E-001  
  777.50  3.3642E-001  
  778.00  3.3681E-001  
  778.50  3.3731E-001  
  779.00  3.3794E-001  
  779.50  3.3711E-001  
  780.00  3.3736E-001  
  780.50  3.3772E-001  
  781.00  3.3874E-001  
  781.50  3.3992E-001  
  782.00  3.4123E-001  
  782.50  3.4216E-001  
  783.00  3.4210E-001  
  783.50  3.4181E-001  
  784.00  3.4206E-001  
  784.50  3.4247E-001  
  785.00  3.4217E-001  
  785.50  3.4281E-001  
  786.00  3.4415E-001  
  786.50  3.4538E-001  
  787.00  3.4422E-001  
  787.50  3.4459E-001  
  788.00  3.4557E-001  
  788.50  3.4665E-001  
  789.00  3.4656E-001  
  789.50  3.4645E-001  
  790.00  3.4740E-001  
  790.50  3.4845E-001  
  791.00  3.4793E-001  
  791.50  3.4760E-001  
  792.00  3.4784E-001  
  792.50  3.4913E-001  
  793.00  3.5030E-001  
  793.50  3.4997E-001  
  794.00  3.4870E-001  
  794.50  3.4881E-001  
  795.00  3.5102E-001  
  795.50  3.5283E-001  
  796.00  3.5283E-001  
  796.50  3.5167E-001  
  797.00  3.5092E-001  
  797.50  3.5196E-001  
  798.00  3.5262E-001  
  798.50  3.5231E-001  
  799.00  3.5152E-001  
  799.50  3.5241E-001  
  800.00  3.5370E-001  
  800.50  3.5434E-001  
  801.00  3.5400E-001  
  801.50  3.5279E-001  
  802.00  3.5298E-001  
  802.50  3.5488E-001  
  803.00  3.5668E-001  
  803.50  3.5706E-001  
  804.00  3.5670E-001  
  804.50  3.5575E-001  
  805.00  3.5635E-001  
  805.50  3.5897E-001  
  806.00  3.6136E-001  
  806.50  3.6000E-001  
  807.00  3.5774E-001  
  807.50  3.5663E-001  
  808.00  3.5819E-001  
  808.50  3.5823E-001  
  809.00  3.5898E-001  
  809.50  3.5868E-001  
  810.00  3.5986E-001  
  810.50  3.5979E-001  
  811.00  3.6089E-001  
  811.50  3.6040E-001  
  812.00  3.6254E-001  
  812.50  3.6348E-001  
  813.00  3.6435E-001  
  813.50  3.6337E-001  
  814.00  3.6255E-001  
  814.50  3.6319E-001  
  815.00  3.6553E-001  
  815.50  3.6653E-001  
  816.00  3.6704E-001  
  816.50  3.6739E-001  
  817.00  3.6824E-001  
  817.50  3.6831E-001  
  818.00  3.7024E-001  
  818.50  3.6946E-001  
  819.00  3.6752E-001  
  819.50  3.6747E-001  
  820.00  3.6871E-001  
  820.50  3.6980E-001  
  821.00  3.6988E-001  
  821.50  3.6991E-001  
  822.00  3.7106E-001  
  822.50  3.7052E-001  
  823.00  3.7157E-001  
  823.50  3.7367E-001  
  824.00  3.7325E-001  
  824.50  3.7061E-001  
  825.00  3.7050E-001  
  825.50  3.7231E-001  
  826.00  3.7514E-001  
  826.50  3.7589E-001  
  827.00  3.7561E-001  
  827.50  3.7392E-001  
  828.00  3.7430E-001  
  828.50  3.7527E-001  
  829.00  3.7515E-001  
  829.50  3.7473E-001  
  830.00  3.7485E-001  
  830.50  3.7568E-001  
  831.00  3.7606E-001  
  831.50  3.7707E-001  
  832.00  3.7769E-001  
  832.50  3.7719E-001  
  833.00  3.7762E-001  
  833.50  3.7845E-001  
  834.00  3.8031E-001  
  834.50  3.8206E-001  
  835.00  3.8269E-001  
  835.50  3.8333E-001  
  836.00  3.8449E-001  
  836.50  3.8434E-001  
  837.00  3.8366E-001  
  837.50  3.8301E-001  
  838.00  3.8305E-001  
  838.50  3.8248E-001  
  839.00  3.8322E-001  
  839.50  3.8448E-001  
  840.00  3.8750E-001  
  840.50  3.8751E-001  
  841.00  3.8780E-001  
  841.50  3.8767E-001  
  842.00  3.8898E-001  
  842.50  3.8970E-001  
  843.00  3.8805E-001  
  843.50  3.8640E-001  
  844.00  3.8716E-001  
  844.50  3.8921E-001  
  845.00  3.9405E-001  
  845.50  3.9576E-001  
  846.00  3.9613E-001  
  846.50  3.9485E-001  
  847.00  3.9683E-001  
  847.50  3.9865E-001  
  848.00  3.9920E-001  
  848.50  3.9872E-001  
  849.00  3.9950E-001  
  849.50  3.9883E-001  
  850.00  3.9997E-001  
  850.50  4.0345E-001  
  851.00  4.0589E-001  
  851.50  4.0619E-001  
  852.00  4.0725E-001  
  852.50  4.1077E-001  
  853.00  4.1299E-001  
  853.50  4.1357E-001  
  854.00  4.1069E-001  
  854.50  4.1174E-001  
  855.00  4.1490E-001  
  855.50  4.1878E-001  
  856.00  4.2001E-001  
  856.50  4.2085E-001  
  857.00  4.2114E-001  
  857.50  4.2079E-001  
  858.00  4.2120E-001  
  858.50  4.2332E-001  
  859.00  4.2843E-001  
  859.50  4.3057E-001  
  860.00  4.3311E-001  
  860.50  4.3419E-001  
  861.00  4.3520E-001  
  861.50  4.3494E-001  
  862.00  4.3622E-001  
  862.50  4.3855E-001  
  863.00  4.3967E-001  
  863.50  4.3839E-001  
  864.00  4.3788E-001  
  864.50  4.3978E-001  
  865.00  4.4184E-001  
  865.50  4.4369E-001  
  866.00  4.4491E-001  
  866.50  4.4402E-001  
  867.00  4.4479E-001  
  867.50  4.5006E-001  
  868.00  4.5532E-001  
  868.50  4.5624E-001  
  869.00  4.5439E-001  
  869.50  4.5587E-001  
  870.00  4.5614E-001  
  870.50  4.5577E-001  
  871.00  4.5558E-001  
  871.50  4.6079E-001  
  872.00  4.6187E-001  
  872.50  4.6333E-001  
  873.00  4.6597E-001  
  873.50  4.6909E-001  
  874.00  4.7058E-001  
  874.50  4.6720E-001  
  875.00  4.6394E-001  
  875.50  4.6404E-001  
  876.00  4.6551E-001  
  876.50  4.6936E-001  
  877.00  4.7301E-001  
  877.50  4.7589E-001  
  878.00  4.7583E-001  
  878.50  4.7798E-001  
  879.00  4.8088E-001  
  879.50  4.8109E-001  
  880.00  4.7867E-001  
  880.50  4.7890E-001  
  881.00  4.8146E-001  
  881.50  4.8104E-001  
  882.00  4.7819E-001  
  882.50  4.7859E-001  
  883.00  4.8617E-001  
  883.50  4.9243E-001  
  884.00  4.9224E-001  
  884.50  4.9595E-001  
  885.00  5.0079E-001  
  885.50  4.9573E-001  
  886.00  4.8955E-001  
  886.50  4.8632E-001  
  887.00  4.8682E-001  
  887.50  4.9285E-001  
  888.00  5.0121E-001  
  888.50  5.0571E-001  
  889.00  5.0569E-001  
  889.50  5.0357E-001  
  890.00  5.0334E-001  
  890.50  5.0865E-001  
  891.00  5.1396E-001  
  891.50  5.1256E-001  
  892.00  5.1074E-001  
  892.50  5.0752E-001  
  893.00  5.0896E-001  
  893.50  5.1063E-001  
  894.00  5.1374E-001  
  894.50  5.1568E-001  
  895.00  5.1378E-001  
  895.50  5.1710E-001  
  896.00  5.1987E-001  
  896.50  5.1864E-001  
  897.00  5.1986E-001  
  897.50  5.2370E-001  
  898.00  5.2727E-001  
  898.50  5.3080E-001  
  899.00  5.3084E-001  
  899.50  1.0495E-002  
