
# From lspdd.org
# 
# Name: INC Standard candlelight -
# Indice spectral Valeur 
# MSI 0.33 
# SLI 0.55 
# IPI 1.12 
# Pourcentage de bleu 12.2 
# Caractéristique Valeur 
# CCT calculée (K) 2497 
# CCT du fabricant (K) 2700 
# Tension (V) 120 
# Puissance (W) 60.0 
# Efficacité lumineuse (Lum/W) ND 
#
# Image: '/app/system/img_1s/2777/medium_image1.jpg?1622001369'
# 

  273.00  0.0000E+000  
  273.50  0.0000E+000  
  274.00  0.0000E+000  
  274.50  0.0000E+000  
  275.00  0.0000E+000  
  275.50  0.0000E+000  
  276.00  0.0000E+000  
  276.50  0.0000E+000  
  277.00  0.0000E+000  
  277.50  0.0000E+000  
  278.00  0.0000E+000  
  278.50  0.0000E+000  
  279.00  0.0000E+000  
  279.50  0.0000E+000  
  280.00  0.0000E+000  
  280.50  0.0000E+000  
  281.00  0.0000E+000  
  281.50  0.0000E+000  
  282.00  0.0000E+000  
  282.50  0.0000E+000  
  283.00  0.0000E+000  
  283.50  0.0000E+000  
  284.00  0.0000E+000  
  284.50  0.0000E+000  
  285.00  0.0000E+000  
  285.50  0.0000E+000  
  286.00  0.0000E+000  
  286.50  0.0000E+000  
  287.00  0.0000E+000  
  287.50  0.0000E+000  
  288.00  0.0000E+000  
  288.50  0.0000E+000  
  289.00  0.0000E+000  
  289.50  0.0000E+000  
  290.00  0.0000E+000  
  290.50  0.0000E+000  
  291.00  0.0000E+000  
  291.50  0.0000E+000  
  292.00  0.0000E+000  
  292.50  0.0000E+000  
  293.00  0.0000E+000  
  293.50  0.0000E+000  
  294.00  0.0000E+000  
  294.50  0.0000E+000  
  295.00  0.0000E+000  
  295.50  0.0000E+000  
  296.00  0.0000E+000  
  296.50  0.0000E+000  
  297.00  0.0000E+000  
  297.50  0.0000E+000  
  298.00  0.0000E+000  
  298.50  0.0000E+000  
  299.00  0.0000E+000  
  299.50  0.0000E+000  
  300.00  4.6170E-006  
  300.50  4.4755E-005  
  301.00  1.9222E-004  
  301.50  2.5933E-004  
  302.00  3.3167E-004  
  302.50  4.2155E-004  
  303.00  4.2069E-004  
  303.50  5.9831E-004  
  304.00  6.5582E-004  
  304.50  6.4215E-004  
  305.00  5.6725E-004  
  305.50  5.0096E-004  
  306.00  7.3146E-004  
  306.50  6.7634E-004  
  307.00  7.1905E-004  
  307.50  8.1778E-004  
  308.00  8.8608E-004  
  308.50  7.9357E-004  
  309.00  6.3965E-004  
  309.50  2.9041E-004  
  310.00  6.1786E-005  
  310.50  2.9222E-007  
  311.00  6.4530E-005  
  311.50  3.8251E-004  
  312.00  6.5196E-004  
  312.50  1.0470E-003  
  313.00  1.1712E-003  
  313.50  7.6515E-004  
  314.00  6.3741E-004  
  314.50  4.1075E-004  
  315.00  3.5216E-004  
  315.50  3.8624E-004  
  316.00  4.7487E-004  
  316.50  5.2066E-004  
  317.00  5.0916E-004  
  317.50  2.4100E-004  
  318.00  3.4591E-005  
  318.50  0.0000E+000  
  319.00  1.2149E-005  
  319.50  1.7200E-004  
  320.00  1.7257E-004  
  320.50  4.2300E-005  
  321.00  3.4741E-005  
  321.50  0.0000E+000  
  322.00  0.0000E+000  
  322.50  0.0000E+000  
  323.00  0.0000E+000  
  323.50  0.0000E+000  
  324.00  6.4282E-006  
  324.50  2.1994E-004  
  325.00  5.1815E-004  
  325.50  5.1751E-004  
  326.00  4.5107E-004  
  326.50  1.0476E-004  
  327.00  2.9647E-006  
  327.50  1.3519E-004  
  328.00  4.6326E-004  
  328.50  7.4115E-004  
  329.00  9.0460E-004  
  329.50  7.6215E-004  
  330.00  6.4082E-004  
  330.50  6.4758E-004  
  331.00  7.1825E-004  
  331.50  9.2875E-004  
  332.00  1.1236E-003  
  332.50  1.3033E-003  
  333.00  1.3384E-003  
  333.50  1.2120E-003  
  334.00  8.2901E-004  
  334.50  4.7846E-004  
  335.00  2.7417E-004  
  335.50  1.4638E-004  
  336.00  2.9132E-004  
  336.50  3.6459E-004  
  337.00  4.2113E-004  
  337.50  5.9987E-004  
  338.00  5.1508E-004  
  338.50  6.5785E-004  
  339.00  5.9747E-004  
  339.50  2.1410E-004  
  340.00  2.2060E-004  
  340.50  1.6712E-004  
  341.00  2.5822E-004  
  341.50  4.4640E-004  
  342.00  3.3735E-004  
  342.50  2.6986E-004  
  343.00  5.4257E-004  
  343.50  1.0419E-003  
  344.00  1.6436E-003  
  344.50  1.8581E-003  
  345.00  1.7454E-003  
  345.50  1.5883E-003  
  346.00  1.5208E-003  
  346.50  1.7420E-003  
  347.00  1.8623E-003  
  347.50  1.9163E-003  
  348.00  1.8525E-003  
  348.50  1.6957E-003  
  349.00  1.7207E-003  
  349.50  1.6305E-003  
  350.00  1.8568E-003  
  350.50  2.1378E-003  
  351.00  2.0778E-003  
  351.50  2.3339E-003  
  352.00  2.3472E-003  
  352.50  2.2836E-003  
  353.00  2.4699E-003  
  353.50  2.5326E-003  
  354.00  2.5438E-003  
  354.50  2.6699E-003  
  355.00  2.6804E-003  
  355.50  2.5872E-003  
  356.00  2.8052E-003  
  356.50  3.1179E-003  
  357.00  3.3421E-003  
  357.50  3.3144E-003  
  358.00  3.1597E-003  
  358.50  3.0609E-003  
  359.00  3.1612E-003  
  359.50  3.5930E-003  
  360.00  4.1281E-003  
  360.50  4.4669E-003  
  361.00  4.9055E-003  
  361.50  5.1624E-003  
  362.00  5.2625E-003  
  362.50  5.3939E-003  
  363.00  5.4722E-003  
  363.50  5.5546E-003  
  364.00  5.6598E-003  
  364.50  5.8773E-003  
  365.00  5.8422E-003  
  365.50  5.8931E-003  
  366.00  6.1547E-003  
  366.50  6.2903E-003  
  367.00  6.6639E-003  
  367.50  7.0017E-003  
  368.00  7.1488E-003  
  368.50  7.5090E-003  
  369.00  7.7504E-003  
  369.50  8.0790E-003  
  370.00  8.4643E-003  
  370.50  8.8404E-003  
  371.00  9.1510E-003  
  371.50  9.2110E-003  
  372.00  9.3855E-003  
  372.50  9.4538E-003  
  373.00  9.4354E-003  
  373.50  9.5424E-003  
  374.00  9.6652E-003  
  374.50  9.8565E-003  
  375.00  1.0351E-002  
  375.50  1.0664E-002  
  376.00  1.0785E-002  
  376.50  1.0895E-002  
  377.00  1.0894E-002  
  377.50  1.1060E-002  
  378.00  1.1334E-002  
  378.50  1.1480E-002  
  379.00  1.1658E-002  
  379.50  1.1899E-002  
  380.00  1.2095E-002  
  380.50  1.2394E-002  
  381.00  1.2650E-002  
  381.50  1.2530E-002  
  382.00  1.2557E-002  
  382.50  1.2646E-002  
  383.00  1.2911E-002  
  383.50  1.3516E-002  
  384.00  1.3744E-002  
  384.50  1.4040E-002  
  385.00  1.4395E-002  
  385.50  1.4639E-002  
  386.00  1.4911E-002  
  386.50  1.5071E-002  
  387.00  1.5128E-002  
  387.50  1.5468E-002  
  388.00  1.5927E-002  
  388.50  1.6268E-002  
  389.00  1.6567E-002  
  389.50  1.6842E-002  
  390.00  1.7147E-002  
  390.50  1.7446E-002  
  391.00  1.7772E-002  
  391.50  1.7844E-002  
  392.00  1.7744E-002  
  392.50  1.7779E-002  
  393.00  1.7969E-002  
  393.50  1.8352E-002  
  394.00  1.8810E-002  
  394.50  1.9072E-002  
  395.00  1.9320E-002  
  395.50  1.9617E-002  
  396.00  1.9902E-002  
  396.50  2.0242E-002  
  397.00  2.0390E-002  
  397.50  2.0662E-002  
  398.00  2.0883E-002  
  398.50  2.0998E-002  
  399.00  2.1296E-002  
  399.50  2.1553E-002  
  400.00  2.2132E-002  
  400.50  2.2454E-002  
  401.00  2.2781E-002  
  401.50  2.2828E-002  
  402.00  2.3055E-002  
  402.50  2.3309E-002  
  403.00  2.3694E-002  
  403.50  2.3982E-002  
  404.00  2.4043E-002  
  404.50  2.4273E-002  
  405.00  2.4346E-002  
  405.50  2.4913E-002  
  406.00  2.5399E-002  
  406.50  2.5564E-002  
  407.00  2.5463E-002  
  407.50  2.5702E-002  
  408.00  2.6249E-002  
  408.50  2.7123E-002  
  409.00  2.7876E-002  
  409.50  2.7958E-002  
  410.00  2.7945E-002  
  410.50  2.8103E-002  
  411.00  2.8274E-002  
  411.50  2.8676E-002  
  412.00  2.9255E-002  
  412.50  2.9856E-002  
  413.00  3.0449E-002  
  413.50  3.0746E-002  
  414.00  3.0883E-002  
  414.50  3.1286E-002  
  415.00  3.1941E-002  
  415.50  3.2493E-002  
  416.00  3.2864E-002  
  416.50  3.2934E-002  
  417.00  3.3120E-002  
  417.50  3.3339E-002  
  418.00  3.3436E-002  
  418.50  3.3555E-002  
  419.00  3.3993E-002  
  419.50  3.4620E-002  
  420.00  3.5143E-002  
  420.50  3.5364E-002  
  421.00  3.5435E-002  
  421.50  3.5528E-002  
  422.00  3.5992E-002  
  422.50  3.6333E-002  
  423.00  3.6884E-002  
  423.50  3.7478E-002  
  424.00  3.8108E-002  
  424.50  3.8855E-002  
  425.00  3.9126E-002  
  425.50  3.9365E-002  
  426.00  3.9512E-002  
  426.50  3.9709E-002  
  427.00  3.9972E-002  
  427.50  4.0264E-002  
  428.00  4.0682E-002  
  428.50  4.1266E-002  
  429.00  4.1577E-002  
  429.50  4.1582E-002  
  430.00  4.1484E-002  
  430.50  4.1499E-002  
  431.00  4.1670E-002  
  431.50  4.2151E-002  
  432.00  4.2789E-002  
  432.50  4.3379E-002  
  433.00  4.3958E-002  
  433.50  4.4343E-002  
  434.00  4.5176E-002  
  434.50  4.5841E-002  
  435.00  4.6618E-002  
  435.50  4.7214E-002  
  436.00  4.7888E-002  
  436.50  4.8388E-002  
  437.00  4.8476E-002  
  437.50  4.8559E-002  
  438.00  4.8648E-002  
  438.50  4.9393E-002  
  439.00  4.9977E-002  
  439.50  5.0661E-002  
  440.00  5.1558E-002  
  440.50  5.2419E-002  
  441.00  5.3144E-002  
  441.50  5.3735E-002  
  442.00  5.4162E-002  
  442.50  5.4772E-002  
  443.00  5.5522E-002  
  443.50  5.5940E-002  
  444.00  5.6162E-002  
  444.50  5.6170E-002  
  445.00  5.6196E-002  
  445.50  5.6341E-002  
  446.00  5.6702E-002  
  446.50  5.7265E-002  
  447.00  5.8168E-002  
  447.50  5.9308E-002  
  448.00  6.0046E-002  
  448.50  6.0577E-002  
  449.00  6.0823E-002  
  449.50  6.1226E-002  
  450.00  6.1315E-002  
  450.50  6.1652E-002  
  451.00  6.1985E-002  
  451.50  6.2435E-002  
  452.00  6.3059E-002  
  452.50  6.3641E-002  
  453.00  6.4466E-002  
  453.50  6.5160E-002  
  454.00  6.5519E-002  
  454.50  6.5650E-002  
  455.00  6.6061E-002  
  455.50  6.6752E-002  
  456.00  6.7564E-002  
  456.50  6.8259E-002  
  457.00  6.8986E-002  
  457.50  6.9462E-002  
  458.00  6.9853E-002  
  458.50  7.0498E-002  
  459.00  7.0948E-002  
  459.50  7.1474E-002  
  460.00  7.2152E-002  
  460.50  7.2498E-002  
  461.00  7.3293E-002  
  461.50  7.4114E-002  
  462.00  7.4677E-002  
  462.50  7.5457E-002  
  463.00  7.6479E-002  
  463.50  7.7223E-002  
  464.00  7.8291E-002  
  464.50  7.9227E-002  
  465.00  8.0032E-002  
  465.50  8.0246E-002  
  466.00  8.0180E-002  
  466.50  8.0210E-002  
  467.00  8.1102E-002  
  467.50  8.2558E-002  
  468.00  8.3693E-002  
  468.50  8.4516E-002  
  469.00  8.4873E-002  
  469.50  8.5551E-002  
  470.00  8.6256E-002  
  470.50  8.7176E-002  
  471.00  8.7710E-002  
  471.50  8.7920E-002  
  472.00  8.8274E-002  
  472.50  8.8283E-002  
  473.00  8.8852E-002  
  473.50  8.9786E-002  
  474.00  9.0711E-002  
  474.50  9.1791E-002  
  475.00  9.2224E-002  
  475.50  9.2480E-002  
  476.00  9.2755E-002  
  476.50  9.3446E-002  
  477.00  9.4532E-002  
  477.50  9.5459E-002  
  478.00  9.6291E-002  
  478.50  9.6738E-002  
  479.00  9.7505E-002  
  479.50  9.8562E-002  
  480.00  9.9977E-002  
  480.50  1.0117E-001  
  481.00  1.0137E-001  
  481.50  1.0189E-001  
  482.00  1.0246E-001  
  482.50  1.0353E-001  
  483.00  1.0458E-001  
  483.50  1.0542E-001  
  484.00  1.0640E-001  
  484.50  1.0696E-001  
  485.00  1.0742E-001  
  485.50  1.0766E-001  
  486.00  1.0820E-001  
  486.50  1.0915E-001  
  487.00  1.0977E-001  
  487.50  1.0985E-001  
  488.00  1.0999E-001  
  488.50  1.1031E-001  
  489.00  1.1091E-001  
  489.50  1.1154E-001  
  490.00  1.1164E-001  
  490.50  1.1198E-001  
  491.00  1.1260E-001  
  491.50  1.1335E-001  
  492.00  1.1397E-001  
  492.50  1.1403E-001  
  493.00  1.1400E-001  
  493.50  1.1403E-001  
  494.00  1.1412E-001  
  494.50  1.1425E-001  
  495.00  1.1446E-001  
  495.50  1.1498E-001  
  496.00  1.1568E-001  
  496.50  1.1609E-001  
  497.00  1.1651E-001  
  497.50  1.1706E-001  
  498.00  1.1770E-001  
  498.50  1.1843E-001  
  499.00  1.1885E-001  
  499.50  1.1919E-001  
  500.00  1.1935E-001  
  500.50  1.1943E-001  
  501.00  1.1972E-001  
  501.50  1.2036E-001  
  502.00  1.2092E-001  
  502.50  1.2133E-001  
  503.00  1.2167E-001  
  503.50  1.2214E-001  
  504.00  1.2283E-001  
  504.50  1.2346E-001  
  505.00  1.2385E-001  
  505.50  1.2406E-001  
  506.00  1.2398E-001  
  506.50  1.2390E-001  
  507.00  1.2405E-001  
  507.50  1.2452E-001  
  508.00  1.2494E-001  
  508.50  1.2519E-001  
  509.00  1.2474E-001  
  509.50  1.2416E-001  
  510.00  1.2375E-001  
  510.50  1.2356E-001  
  511.00  1.2344E-001  
  511.50  1.2319E-001  
  512.00  1.2326E-001  
  512.50  1.2363E-001  
  513.00  1.2402E-001  
  513.50  1.2428E-001  
  514.00  1.2483E-001  
  514.50  1.2580E-001  
  515.00  1.2713E-001  
  515.50  1.2874E-001  
  516.00  1.3005E-001  
  516.50  1.3138E-001  
  517.00  1.3268E-001  
  517.50  1.3375E-001  
  518.00  1.3517E-001  
  518.50  1.3643E-001  
  519.00  1.3761E-001  
  519.50  1.3835E-001  
  520.00  1.3878E-001  
  520.50  1.3907E-001  
  521.00  1.3928E-001  
  521.50  1.3911E-001  
  522.00  1.3831E-001  
  522.50  1.3730E-001  
  523.00  1.3635E-001  
  523.50  1.3575E-001  
  524.00  1.3527E-001  
  524.50  1.3494E-001  
  525.00  1.3513E-001  
  525.50  1.3544E-001  
  526.00  1.3573E-001  
  526.50  1.3583E-001  
  527.00  1.3600E-001  
  527.50  1.3633E-001  
  528.00  1.3675E-001  
  528.50  1.3741E-001  
  529.00  1.3800E-001  
  529.50  1.3905E-001  
  530.00  1.4029E-001  
  530.50  1.4194E-001  
  531.00  1.4365E-001  
  531.50  1.4545E-001  
  532.00  1.4769E-001  
  532.50  1.5003E-001  
  533.00  1.5247E-001  
  533.50  1.5489E-001  
  534.00  1.5755E-001  
  534.50  1.6079E-001  
  535.00  1.6402E-001  
  535.50  1.6723E-001  
  536.00  1.7012E-001  
  536.50  1.7318E-001  
  537.00  1.7594E-001  
  537.50  1.7886E-001  
  538.00  1.8161E-001  
  538.50  1.8420E-001  
  539.00  1.8666E-001  
  539.50  1.8886E-001  
  540.00  1.9111E-001  
  540.50  1.9357E-001  
  541.00  1.9609E-001  
  541.50  1.9840E-001  
  542.00  2.0029E-001  
  542.50  2.0196E-001  
  543.00  2.0416E-001  
  543.50  2.0648E-001  
  544.00  2.0865E-001  
  544.50  2.1009E-001  
  545.00  2.1140E-001  
  545.50  2.1276E-001  
  546.00  2.1431E-001  
  546.50  2.1563E-001  
  547.00  2.1687E-001  
  547.50  2.1795E-001  
  548.00  2.1938E-001  
  548.50  2.2112E-001  
  549.00  2.2325E-001  
  549.50  2.2539E-001  
  550.00  2.2679E-001  
  550.50  2.2836E-001  
  551.00  2.2983E-001  
  551.50  2.3104E-001  
  552.00  2.3198E-001  
  552.50  2.3265E-001  
  553.00  2.3382E-001  
  553.50  2.3526E-001  
  554.00  2.3677E-001  
  554.50  2.3815E-001  
  555.00  2.3918E-001  
  555.50  2.4013E-001  
  556.00  2.4146E-001  
  556.50  2.4285E-001  
  557.00  2.4444E-001  
  557.50  2.4597E-001  
  558.00  2.4702E-001  
  558.50  2.4818E-001  
  559.00  2.4957E-001  
  559.50  2.5110E-001  
  560.00  2.5307E-001  
  560.50  2.5379E-001  
  561.00  2.5467E-001  
  561.50  2.5535E-001  
  562.00  2.5575E-001  
  562.50  2.5675E-001  
  563.00  2.5699E-001  
  563.50  2.5727E-001  
  564.00  2.5705E-001  
  564.50  2.5703E-001  
  565.00  2.5667E-001  
  565.50  2.5562E-001  
  566.00  2.5268E-001  
  566.50  2.4887E-001  
  567.00  2.4420E-001  
  567.50  2.3805E-001  
  568.00  2.3032E-001  
  568.50  2.2006E-001  
  569.00  2.0863E-001  
  569.50  1.9633E-001  
  570.00  1.8368E-001  
  570.50  1.7145E-001  
  571.00  1.6057E-001  
  571.50  1.5193E-001  
  572.00  1.4614E-001  
  572.50  1.4271E-001  
  573.00  1.4170E-001  
  573.50  1.4182E-001  
  574.00  1.4253E-001  
  574.50  1.4376E-001  
  575.00  1.4489E-001  
  575.50  1.4618E-001  
  576.00  1.4744E-001  
  576.50  1.4888E-001  
  577.00  1.5082E-001  
  577.50  1.5262E-001  
  578.00  1.5452E-001  
  578.50  1.5645E-001  
  579.00  1.5834E-001  
  579.50  1.5976E-001  
  580.00  1.6024E-001  
  580.50  1.5905E-001  
  581.00  1.5610E-001  
  581.50  1.5155E-001  
  582.00  1.4596E-001  
  582.50  1.3975E-001  
  583.00  1.3358E-001  
  583.50  1.2786E-001  
  584.00  1.2346E-001  
  584.50  1.2047E-001  
  585.00  1.1934E-001  
  585.50  1.1989E-001  
  586.00  1.2200E-001  
  586.50  1.2520E-001  
  587.00  1.2923E-001  
  587.50  1.3452E-001  
  588.00  1.3996E-001  
  588.50  1.4579E-001  
  589.00  1.5112E-001  
  589.50  1.5664E-001  
  590.00  1.6192E-001  
  590.50  1.6700E-001  
  591.00  1.7179E-001  
  591.50  1.7674E-001  
  592.00  1.8198E-001  
  592.50  1.8783E-001  
  593.00  1.9438E-001  
  593.50  2.0187E-001  
  594.00  2.0976E-001  
  594.50  2.1789E-001  
  595.00  2.2551E-001  
  595.50  2.3287E-001  
  596.00  2.3990E-001  
  596.50  2.4670E-001  
  597.00  2.5300E-001  
  597.50  2.5844E-001  
  598.00  2.6331E-001  
  598.50  2.6820E-001  
  599.00  2.7357E-001  
  599.50  2.7950E-001  
  600.00  2.8481E-001  
  600.50  2.8985E-001  
  601.00  2.9476E-001  
  601.50  2.9968E-001  
  602.00  3.0472E-001  
  602.50  3.0909E-001  
  603.00  3.1326E-001  
  603.50  3.1747E-001  
  604.00  3.2164E-001  
  604.50  3.2529E-001  
  605.00  3.2861E-001  
  605.50  3.3144E-001  
  606.00  3.3463E-001  
  606.50  3.3784E-001  
  607.00  3.4117E-001  
  607.50  3.4448E-001  
  608.00  3.4721E-001  
  608.50  3.4940E-001  
  609.00  3.5136E-001  
  609.50  3.5406E-001  
  610.00  3.5743E-001  
  610.50  3.6126E-001  
  611.00  3.6521E-001  
  611.50  3.6897E-001  
  612.00  3.7280E-001  
  612.50  3.7563E-001  
  613.00  3.7824E-001  
  613.50  3.8067E-001  
  614.00  3.8383E-001  
  614.50  3.8677E-001  
  615.00  3.8886E-001  
  615.50  3.9087E-001  
  616.00  3.9281E-001  
  616.50  3.9522E-001  
  617.00  3.9652E-001  
  617.50  3.9735E-001  
  618.00  3.9842E-001  
  618.50  3.9966E-001  
  619.00  4.0141E-001  
  619.50  4.0272E-001  
  620.00  4.0345E-001  
  620.50  4.0352E-001  
  621.00  4.0397E-001  
  621.50  4.0461E-001  
  622.00  4.0578E-001  
  622.50  4.0607E-001  
  623.00  4.0664E-001  
  623.50  4.0718E-001  
  624.00  4.0789E-001  
  624.50  4.0896E-001  
  625.00  4.1004E-001  
  625.50  4.1119E-001  
  626.00  4.1201E-001  
  626.50  4.1283E-001  
  627.00  4.1391E-001  
  627.50  4.1492E-001  
  628.00  4.1641E-001  
  628.50  4.1785E-001  
  629.00  4.1888E-001  
  629.50  4.1974E-001  
  630.00  4.2049E-001  
  630.50  4.2165E-001  
  631.00  4.2311E-001  
  631.50  4.2482E-001  
  632.00  4.2614E-001  
  632.50  4.2678E-001  
  633.00  4.2775E-001  
  633.50  4.2900E-001  
  634.00  4.3035E-001  
  634.50  4.3128E-001  
  635.00  4.3233E-001  
  635.50  4.3335E-001  
  636.00  4.3413E-001  
  636.50  4.3507E-001  
  637.00  4.3604E-001  
  637.50  4.3718E-001  
  638.00  4.3790E-001  
  638.50  4.3940E-001  
  639.00  4.4072E-001  
  639.50  4.4186E-001  
  640.00  4.4225E-001  
  640.50  4.4266E-001  
  641.00  4.4382E-001  
  641.50  4.4529E-001  
  642.00  4.4777E-001  
  642.50  4.4995E-001  
  643.00  4.5124E-001  
  643.50  4.5205E-001  
  644.00  4.5263E-001  
  644.50  4.5327E-001  
  645.00  4.5373E-001  
  645.50  4.5379E-001  
  646.00  4.5477E-001  
  646.50  4.5601E-001  
  647.00  4.5741E-001  
  647.50  4.5852E-001  
  648.00  4.5923E-001  
  648.50  4.6044E-001  
  649.00  4.6179E-001  
  649.50  4.6351E-001  
  650.00  4.6426E-001  
  650.50  4.6550E-001  
  651.00  4.6641E-001  
  651.50  4.6791E-001  
  652.00  4.6869E-001  
  652.50  4.6881E-001  
  653.00  4.6866E-001  
  653.50  4.6881E-001  
  654.00  4.6991E-001  
  654.50  4.7143E-001  
  655.00  4.7262E-001  
  655.50  4.7329E-001  
  656.00  4.7387E-001  
  656.50  4.7494E-001  
  657.00  4.7597E-001  
  657.50  4.7663E-001  
  658.00  4.7688E-001  
  658.50  4.7744E-001  
  659.00  4.7789E-001  
  659.50  4.7799E-001  
  660.00  4.7838E-001  
  660.50  4.7904E-001  
  661.00  4.8049E-001  
  661.50  4.8189E-001  
  662.00  4.8307E-001  
  662.50  4.8430E-001  
  663.00  4.8469E-001  
  663.50  4.8542E-001  
  664.00  4.8538E-001  
  664.50  4.8493E-001  
  665.00  4.8493E-001  
  665.50  4.8476E-001  
  666.00  4.8515E-001  
  666.50  4.8499E-001  
  667.00  4.8538E-001  
  667.50  4.8602E-001  
  668.00  4.8619E-001  
  668.50  4.8649E-001  
  669.00  4.8623E-001  
  669.50  4.8636E-001  
  670.00  4.8614E-001  
  670.50  4.8702E-001  
  671.00  4.8802E-001  
  671.50  4.8816E-001  
  672.00  4.8769E-001  
  672.50  4.8759E-001  
  673.00  4.8897E-001  
  673.50  4.8938E-001  
  674.00  4.8921E-001  
  674.50  4.8829E-001  
  675.00  4.8822E-001  
  675.50  4.8791E-001  
  676.00  4.8846E-001  
  676.50  4.8846E-001  
  677.00  4.8816E-001  
  677.50  4.8705E-001  
  678.00  4.8603E-001  
  678.50  4.8597E-001  
  679.00  4.8610E-001  
  679.50  4.8631E-001  
  680.00  4.8569E-001  
  680.50  4.8526E-001  
  681.00  4.8416E-001  
  681.50  4.8337E-001  
  682.00  4.8237E-001  
  682.50  4.8238E-001  
  683.00  4.8197E-001  
  683.50  4.8089E-001  
  684.00  4.8082E-001  
  684.50  4.8147E-001  
  685.00  4.8218E-001  
  685.50  4.8243E-001  
  686.00  4.8305E-001  
  686.50  4.8487E-001  
  687.00  4.8729E-001  
  687.50  4.8981E-001  
  688.00  4.9126E-001  
  688.50  4.9189E-001  
  689.00  4.9183E-001  
  689.50  4.9286E-001  
  690.00  4.9446E-001  
  690.50  4.9620E-001  
  691.00  4.9687E-001  
  691.50  4.9724E-001  
  692.00  4.9826E-001  
  692.50  4.9964E-001  
  693.00  5.0078E-001  
  693.50  5.0213E-001  
  694.00  5.0396E-001  
  694.50  5.0535E-001  
  695.00  5.0654E-001  
  695.50  5.0769E-001  
  696.00  5.0854E-001  
  696.50  5.0996E-001  
  697.00  5.1109E-001  
  697.50  5.1259E-001  
  698.00  5.1234E-001  
  698.50  5.1236E-001  
  699.00  5.1236E-001  
  699.50  5.1317E-001  
  700.00  5.1432E-001  
  700.50  5.1537E-001  
  701.00  5.1661E-001  
  701.50  5.1696E-001  
  702.00  5.1814E-001  
  702.50  5.1945E-001  
  703.00  5.2061E-001  
  703.50  5.2056E-001  
  704.00  5.2075E-001  
  704.50  5.2152E-001  
  705.00  5.2232E-001  
  705.50  5.2211E-001  
  706.00  5.2175E-001  
  706.50  5.2155E-001  
  707.00  5.2183E-001  
  707.50  5.2302E-001  
  708.00  5.2382E-001  
  708.50  5.2421E-001  
  709.00  5.2499E-001  
  709.50  5.2639E-001  
  710.00  5.2738E-001  
  710.50  5.2740E-001  
  711.00  5.2700E-001  
  711.50  5.2595E-001  
  712.00  5.2588E-001  
  712.50  5.2681E-001  
  713.00  5.2759E-001  
  713.50  5.2845E-001  
  714.00  5.2952E-001  
  714.50  5.3040E-001  
  715.00  5.3067E-001  
  715.50  5.3024E-001  
  716.00  5.2976E-001  
  716.50  5.2918E-001  
  717.00  5.2916E-001  
  717.50  5.3038E-001  
  718.00  5.3121E-001  
  718.50  5.3114E-001  
  719.00  5.3073E-001  
  719.50  5.3124E-001  
  720.00  5.3155E-001  
  720.50  5.3187E-001  
  721.00  5.3147E-001  
  721.50  5.3160E-001  
  722.00  5.3109E-001  
  722.50  5.3135E-001  
  723.00  5.3102E-001  
  723.50  5.2959E-001  
  724.00  5.2845E-001  
  724.50  5.2785E-001  
  725.00  5.2754E-001  
  725.50  5.2671E-001  
  726.00  5.2531E-001  
  726.50  5.2427E-001  
  727.00  5.2360E-001  
  727.50  5.2256E-001  
  728.00  5.2077E-001  
  728.50  5.1894E-001  
  729.00  5.1704E-001  
  729.50  5.1358E-001  
  730.00  5.0885E-001  
  730.50  5.0287E-001  
  731.00  4.9643E-001  
  731.50  4.8933E-001  
  732.00  4.8199E-001  
  732.50  4.7476E-001  
  733.00  4.6566E-001  
  733.50  4.5464E-001  
  734.00  4.4322E-001  
  734.50  4.3117E-001  
  735.00  4.1779E-001  
  735.50  4.0326E-001  
  736.00  3.9085E-001  
  736.50  3.8107E-001  
  737.00  3.7160E-001  
  737.50  3.6368E-001  
  738.00  3.5788E-001  
  738.50  3.5611E-001  
  739.00  3.5560E-001  
  739.50  3.5632E-001  
  740.00  3.5684E-001  
  740.50  3.5631E-001  
  741.00  3.5494E-001  
  741.50  3.5478E-001  
  742.00  3.5627E-001  
  742.50  3.5816E-001  
  743.00  3.6017E-001  
  743.50  3.6321E-001  
  744.00  3.6642E-001  
  744.50  3.6939E-001  
  745.00  3.7102E-001  
  745.50  3.7108E-001  
  746.00  3.6960E-001  
  746.50  3.6790E-001  
  747.00  3.6582E-001  
  747.50  3.6334E-001  
  748.00  3.5997E-001  
  748.50  3.5782E-001  
  749.00  3.5866E-001  
  749.50  3.6118E-001  
  750.00  3.6442E-001  
  750.50  3.6739E-001  
  751.00  3.7226E-001  
  751.50  3.7783E-001  
  752.00  3.8419E-001  
  752.50  3.9072E-001  
  753.00  3.9570E-001  
  753.50  3.9883E-001  
  754.00  4.0472E-001  
  754.50  4.1303E-001  
  755.00  4.2161E-001  
  755.50  4.2692E-001  
  756.00  4.3171E-001  
  756.50  4.3688E-001  
  757.00  4.4332E-001  
  757.50  4.4991E-001  
  758.00  4.5670E-001  
  758.50  4.6280E-001  
  759.00  4.6889E-001  
  759.50  4.7443E-001  
  760.00  4.7928E-001  
  760.50  4.8350E-001  
  761.00  4.8774E-001  
  761.50  4.9170E-001  
  762.00  4.9517E-001  
  762.50  4.9895E-001  
  763.00  5.0378E-001  
  763.50  5.0706E-001  
  764.00  5.1023E-001  
  764.50  5.1361E-001  
  765.00  5.1729E-001  
  765.50  5.1993E-001  
  766.00  5.2290E-001  
  766.50  5.2620E-001  
  767.00  5.3055E-001  
  767.50  5.3455E-001  
  768.00  5.3835E-001  
  768.50  5.4117E-001  
  769.00  5.4372E-001  
  769.50  5.4492E-001  
  770.00  5.4567E-001  
  770.50  5.4646E-001  
  771.00  5.4791E-001  
  771.50  5.4857E-001  
  772.00  5.4900E-001  
  772.50  5.5134E-001  
  773.00  5.5377E-001  
  773.50  5.5603E-001  
  774.00  5.5749E-001  
  774.50  5.5922E-001  
  775.00  5.5765E-001  
  775.50  5.5541E-001  
  776.00  5.5415E-001  
  776.50  5.5404E-001  
  777.00  5.5361E-001  
  777.50  5.5374E-001  
  778.00  5.5470E-001  
  778.50  5.5543E-001  
  779.00  5.5525E-001  
  779.50  5.5280E-001  
  780.00  5.5099E-001  
  780.50  5.5096E-001  
  781.00  5.4990E-001  
  781.50  5.4681E-001  
  782.00  5.4415E-001  
  782.50  5.4326E-001  
  783.00  5.4206E-001  
  783.50  5.4050E-001  
  784.00  5.3823E-001  
  784.50  5.3504E-001  
  785.00  5.3104E-001  
  785.50  5.2821E-001  
  786.00  5.2662E-001  
  786.50  5.2430E-001  
  787.00  5.1978E-001  
  787.50  5.1479E-001  
  788.00  5.1001E-001  
  788.50  5.0402E-001  
  789.00  4.9869E-001  
  789.50  4.9467E-001  
  790.00  4.8971E-001  
  790.50  4.8372E-001  
  791.00  4.7783E-001  
  791.50  4.7380E-001  
  792.00  4.6903E-001  
  792.50  4.6374E-001  
  793.00  4.5779E-001  
  793.50  4.5175E-001  
  794.00  4.4583E-001  
  794.50  4.3961E-001  
  795.00  4.3555E-001  
  795.50  4.3120E-001  
  796.00  4.2771E-001  
  796.50  4.2290E-001  
  797.00  4.2037E-001  
  797.50  4.1739E-001  
  798.00  4.1419E-001  
  798.50  4.1009E-001  
  799.00  4.0566E-001  
  799.50  4.0208E-001  
  800.00  3.9947E-001  
  800.50  3.9814E-001  
  801.00  3.9663E-001  
  801.50  3.9423E-001  
  802.00  3.9202E-001  
  802.50  3.9059E-001  
  803.00  3.8645E-001  
  803.50  3.7823E-001  
  804.00  3.6777E-001  
  804.50  3.5874E-001  
  805.00  3.4881E-001  
  805.50  3.3886E-001  
  806.00  3.2999E-001  
  806.50  3.2298E-001  
  807.00  3.1842E-001  
  807.50  3.1876E-001  
  808.00  3.2242E-001  
  808.50  3.2762E-001  
  809.00  3.3427E-001  
  809.50  3.4347E-001  
  810.00  3.5440E-001  
  810.50  3.6475E-001  
  811.00  3.7503E-001  
  811.50  3.8595E-001  
  812.00  3.9887E-001  
  812.50  4.1025E-001  
  813.00  4.1945E-001  
  813.50  4.2818E-001  
  814.00  4.3662E-001  
  814.50  4.4645E-001  
  815.00  4.5776E-001  
  815.50  4.6756E-001  
  816.00  4.7488E-001  
  816.50  4.8260E-001  
  817.00  4.9023E-001  
  817.50  4.9726E-001  
  818.00  5.0423E-001  
  818.50  5.0845E-001  
  819.00  5.1219E-001  
  819.50  5.1698E-001  
  820.00  5.2156E-001  
  820.50  5.2484E-001  
  821.00  5.2943E-001  
  821.50  5.3382E-001  
  822.00  5.3803E-001  
  822.50  5.4143E-001  
  823.00  5.4576E-001  
  823.50  5.5100E-001  
  824.00  5.5510E-001  
  824.50  5.5701E-001  
  825.00  5.5900E-001  
  825.50  5.6083E-001  
  826.00  5.6392E-001  
  826.50  5.6653E-001  
  827.00  5.7133E-001  
  827.50  5.7610E-001  
  828.00  5.8321E-001  
  828.50  5.8707E-001  
  829.00  5.8820E-001  
  829.50  5.8849E-001  
  830.00  5.9083E-001  
  830.50  5.9298E-001  
  831.00  5.9850E-001  
  831.50  6.0379E-001  
  832.00  6.0506E-001  
  832.50  6.0479E-001  
  833.00  6.0565E-001  
  833.50  6.0625E-001  
  834.00  6.0871E-001  
  834.50  6.1234E-001  
  835.00  6.1360E-001  
  835.50  6.1384E-001  
  836.00  6.1718E-001  
  836.50  6.2057E-001  
  837.00  6.2273E-001  
  837.50  6.2444E-001  
  838.00  6.2593E-001  
  838.50  6.2605E-001  
  839.00  6.2651E-001  
  839.50  6.2988E-001  
  840.00  6.3168E-001  
  840.50  6.3272E-001  
  841.00  6.3539E-001  
  841.50  6.3414E-001  
  842.00  6.3074E-001  
  842.50  6.2888E-001  
  843.00  6.3212E-001  
  843.50  6.3584E-001  
  844.00  6.3568E-001  
  844.50  6.3312E-001  
  845.00  6.3403E-001  
  845.50  6.3743E-001  
  846.00  6.3921E-001  
  846.50  6.3829E-001  
  847.00  6.3955E-001  
  847.50  6.4130E-001  
  848.00  6.4121E-001  
  848.50  6.4039E-001  
  849.00  6.4042E-001  
  849.50  6.3877E-001  
  850.00  6.3737E-001  
  850.50  6.3689E-001  
  851.00  6.3762E-001  
  851.50  6.3615E-001  
  852.00  6.3565E-001  
  852.50  6.3754E-001  
  853.00  6.3819E-001  
  853.50  6.3858E-001  
  854.00  6.3402E-001  
  854.50  6.3116E-001  
  855.00  6.3019E-001  
  855.50  6.3313E-001  
  856.00  6.3455E-001  
  856.50  6.3524E-001  
  857.00  6.3297E-001  
  857.50  6.3075E-001  
  858.00  6.2790E-001  
  858.50  6.2654E-001  
  859.00  6.2693E-001  
  859.50  6.2343E-001  
  860.00  6.2038E-001  
  860.50  6.1826E-001  
  861.00  6.1919E-001  
  861.50  6.1789E-001  
  862.00  6.1710E-001  
  862.50  6.1712E-001  
  863.00  6.1440E-001  
  863.50  6.0803E-001  
  864.00  6.0674E-001  
  864.50  6.0540E-001  
  865.00  6.0141E-001  
  865.50  6.0120E-001  
  866.00  6.0114E-001  
  866.50  5.9827E-001  
  867.00  5.9445E-001  
  867.50  5.9507E-001  
  868.00  5.9569E-001  
  868.50  5.9612E-001  
  869.00  5.9614E-001  
  869.50  5.9380E-001  
  870.00  5.9054E-001  
  870.50  5.9056E-001  
  871.00  5.9176E-001  
  871.50  5.9554E-001  
  872.00  5.9089E-001  
  872.50  5.8364E-001  
  873.00  5.8439E-001  
  873.50  5.8911E-001  
  874.00  5.8820E-001  
  874.50  5.8248E-001  
  875.00  5.7548E-001  
  875.50  5.6853E-001  
  876.00  5.6384E-001  
  876.50  5.6125E-001  
  877.00  5.5705E-001  
  877.50  5.5552E-001  
  878.00  5.5280E-001  
  878.50  5.5118E-001  
  879.00  5.5121E-001  
  879.50  5.5127E-001  
  880.00  5.5154E-001  
  880.50  5.5774E-001  
  881.00  5.6166E-001  
  881.50  5.6175E-001  
  882.00  5.6371E-001  
  882.50  5.6983E-001  
  883.00  5.7810E-001  
  883.50  5.8196E-001  
  884.00  5.8577E-001  
  884.50  5.9056E-001  
  885.00  5.9526E-001  
  885.50  5.9532E-001  
  886.00  5.9855E-001  
  886.50  5.9557E-001  
  887.00  5.9421E-001  
  887.50  6.0180E-001  
  888.00  6.0756E-001  
  888.50  6.0620E-001  
  889.00  6.0800E-001  
  889.50  6.1073E-001  
  890.00  6.1317E-001  
  890.50  6.1656E-001  
  891.00  6.2101E-001  
  891.50  6.2189E-001  
  892.00  6.2301E-001  
  892.50  6.2119E-001  
  893.00  6.2077E-001  
  893.50  6.2383E-001  
  894.00  6.2683E-001  
  894.50  6.2405E-001  
  895.00  6.2645E-001  
  895.50  6.3466E-001  
  896.00  6.3758E-001  
  896.50  6.3530E-001  
  897.00  6.3558E-001  
  897.50  6.3829E-001  
  898.00  6.3855E-001  
  898.50  6.4175E-001  
  899.00  6.4078E-001  
  899.50  1.2697E-002  
