
# From lspdd.org
# 
# Name: INC Noma domestic-use -
# Indice spectral Valeur 
# MSI 0.26 
# SLI 0.47 
# IPI 1.03 
# Pourcentage de bleu 10.3 
# Caractéristique Valeur 
# CCT calculée (K) 2367 
# CCT du fabricant (K) 2500 
# Tension (V) 130 
# Puissance (W) 40.0 
# Efficacité lumineuse (Lum/W) ND 
#
# Image: '/app/system/img_1s/2782/medium_image1.jpg?1622001371'
# 

  273.00  0.0000E+000  
  273.50  0.0000E+000  
  274.00  0.0000E+000  
  274.50  0.0000E+000  
  275.00  0.0000E+000  
  275.50  0.0000E+000  
  276.00  0.0000E+000  
  276.50  0.0000E+000  
  277.00  0.0000E+000  
  277.50  0.0000E+000  
  278.00  0.0000E+000  
  278.50  0.0000E+000  
  279.00  0.0000E+000  
  279.50  0.0000E+000  
  280.00  0.0000E+000  
  280.50  0.0000E+000  
  281.00  0.0000E+000  
  281.50  0.0000E+000  
  282.00  0.0000E+000  
  282.50  0.0000E+000  
  283.00  0.0000E+000  
  283.50  0.0000E+000  
  284.00  0.0000E+000  
  284.50  0.0000E+000  
  285.00  0.0000E+000  
  285.50  0.0000E+000  
  286.00  0.0000E+000  
  286.50  0.0000E+000  
  287.00  0.0000E+000  
  287.50  0.0000E+000  
  288.00  0.0000E+000  
  288.50  0.0000E+000  
  289.00  0.0000E+000  
  289.50  0.0000E+000  
  290.00  0.0000E+000  
  290.50  0.0000E+000  
  291.00  0.0000E+000  
  291.50  0.0000E+000  
  292.00  0.0000E+000  
  292.50  0.0000E+000  
  293.00  0.0000E+000  
  293.50  0.0000E+000  
  294.00  0.0000E+000  
  294.50  0.0000E+000  
  295.00  0.0000E+000  
  295.50  0.0000E+000  
  296.00  0.0000E+000  
  296.50  0.0000E+000  
  297.00  0.0000E+000  
  297.50  0.0000E+000  
  298.00  0.0000E+000  
  298.50  0.0000E+000  
  299.00  0.0000E+000  
  299.50  0.0000E+000  
  300.00  1.0448E-004  
  300.50  3.4045E-004  
  301.00  4.7184E-004  
  301.50  4.5699E-004  
  302.00  5.3535E-004  
  302.50  6.2131E-004  
  303.00  5.5926E-004  
  303.50  6.3289E-004  
  304.00  6.3294E-004  
  304.50  6.1269E-004  
  305.00  8.0954E-004  
  305.50  9.2853E-004  
  306.00  1.0088E-003  
  306.50  9.0653E-004  
  307.00  7.6747E-004  
  307.50  7.8574E-004  
  308.00  8.8691E-004  
  308.50  8.4017E-004  
  309.00  8.5452E-004  
  309.50  7.2550E-004  
  310.00  5.2165E-004  
  310.50  3.7428E-004  
  311.00  2.4645E-004  
  311.50  1.4748E-004  
  312.00  3.7444E-004  
  312.50  8.5088E-004  
  313.00  1.1593E-003  
  313.50  1.2669E-003  
  314.00  1.0691E-003  
  314.50  7.8093E-004  
  315.00  7.8081E-004  
  315.50  9.0657E-004  
  316.00  9.7952E-004  
  316.50  1.0172E-003  
  317.00  8.2990E-004  
  317.50  5.8997E-004  
  318.00  5.7207E-004  
  318.50  5.2481E-004  
  319.00  5.6759E-004  
  319.50  8.0099E-004  
  320.00  9.3489E-004  
  320.50  1.0592E-003  
  321.00  1.1307E-003  
  321.50  1.1327E-003  
  322.00  9.8952E-004  
  322.50  9.7997E-004  
  323.00  9.8509E-004  
  323.50  9.8160E-004  
  324.00  1.1699E-003  
  324.50  1.2937E-003  
  325.00  1.4564E-003  
  325.50  1.3966E-003  
  326.00  1.2448E-003  
  326.50  9.4248E-004  
  327.00  7.6758E-004  
  327.50  8.9284E-004  
  328.00  1.2732E-003  
  328.50  1.6560E-003  
  329.00  1.8025E-003  
  329.50  1.6428E-003  
  330.00  1.4413E-003  
  330.50  1.2523E-003  
  331.00  1.1206E-003  
  331.50  1.2694E-003  
  332.00  1.5179E-003  
  332.50  2.0030E-003  
  333.00  2.4383E-003  
  333.50  2.3712E-003  
  334.00  1.9974E-003  
  334.50  1.4782E-003  
  335.00  1.1993E-003  
  335.50  1.1637E-003  
  336.00  1.1987E-003  
  336.50  1.4294E-003  
  337.00  1.6665E-003  
  337.50  1.8164E-003  
  338.00  1.8155E-003  
  338.50  1.7625E-003  
  339.00  1.7317E-003  
  339.50  1.6966E-003  
  340.00  2.0112E-003  
  340.50  2.0170E-003  
  341.00  1.9640E-003  
  341.50  2.0026E-003  
  342.00  1.7960E-003  
  342.50  1.7195E-003  
  343.00  1.8730E-003  
  343.50  1.9810E-003  
  344.00  2.1531E-003  
  344.50  2.2783E-003  
  345.00  2.3059E-003  
  345.50  2.5261E-003  
  346.00  2.5860E-003  
  346.50  2.7826E-003  
  347.00  2.7334E-003  
  347.50  2.5153E-003  
  348.00  2.5253E-003  
  348.50  2.4149E-003  
  349.00  2.4126E-003  
  349.50  2.2334E-003  
  350.00  2.0929E-003  
  350.50  2.1022E-003  
  351.00  2.2240E-003  
  351.50  2.5965E-003  
  352.00  2.7274E-003  
  352.50  2.5891E-003  
  353.00  2.5203E-003  
  353.50  2.6859E-003  
  354.00  2.9046E-003  
  354.50  3.0951E-003  
  355.00  3.0532E-003  
  355.50  2.8180E-003  
  356.00  2.8373E-003  
  356.50  3.0061E-003  
  357.00  3.1061E-003  
  357.50  3.0399E-003  
  358.00  2.8343E-003  
  358.50  2.6171E-003  
  359.00  2.5966E-003  
  359.50  2.8887E-003  
  360.00  3.3507E-003  
  360.50  3.7043E-003  
  361.00  4.0052E-003  
  361.50  3.7599E-003  
  362.00  3.4760E-003  
  362.50  3.3466E-003  
  363.00  3.2621E-003  
  363.50  3.5021E-003  
  364.00  3.6837E-003  
  364.50  3.8457E-003  
  365.00  3.6938E-003  
  365.50  3.3841E-003  
  366.00  3.3291E-003  
  366.50  3.1541E-003  
  367.00  3.2504E-003  
  367.50  3.4196E-003  
  368.00  3.4995E-003  
  368.50  3.7207E-003  
  369.00  3.7531E-003  
  369.50  3.8205E-003  
  370.00  4.0188E-003  
  370.50  4.3438E-003  
  371.00  4.6481E-003  
  371.50  4.6923E-003  
  372.00  4.5832E-003  
  372.50  4.4611E-003  
  373.00  4.4054E-003  
  373.50  4.4613E-003  
  374.00  4.5019E-003  
  374.50  4.4957E-003  
  375.00  4.5475E-003  
  375.50  4.6135E-003  
  376.00  4.5563E-003  
  376.50  4.5842E-003  
  377.00  4.7629E-003  
  377.50  5.0559E-003  
  378.00  5.4856E-003  
  378.50  5.7068E-003  
  379.00  5.7360E-003  
  379.50  5.8547E-003  
  380.00  5.8646E-003  
  380.50  5.8491E-003  
  381.00  5.7728E-003  
  381.50  5.5963E-003  
  382.00  5.5958E-003  
  382.50  5.7435E-003  
  383.00  5.7826E-003  
  383.50  5.8557E-003  
  384.00  5.8282E-003  
  384.50  6.0158E-003  
  385.00  6.4230E-003  
  385.50  6.7461E-003  
  386.00  6.8969E-003  
  386.50  6.7779E-003  
  387.00  6.6084E-003  
  387.50  6.6193E-003  
  388.00  6.8081E-003  
  388.50  7.0393E-003  
  389.00  7.1678E-003  
  389.50  7.2092E-003  
  390.00  7.2911E-003  
  390.50  7.1903E-003  
  391.00  7.2834E-003  
  391.50  7.3888E-003  
  392.00  7.5434E-003  
  392.50  7.8103E-003  
  393.00  8.0289E-003  
  393.50  8.0601E-003  
  394.00  8.1107E-003  
  394.50  8.0694E-003  
  395.00  8.2310E-003  
  395.50  8.4025E-003  
  396.00  8.5165E-003  
  396.50  8.6120E-003  
  397.00  8.6217E-003  
  397.50  8.7028E-003  
  398.00  8.8507E-003  
  398.50  9.0359E-003  
  399.00  9.0778E-003  
  399.50  9.1443E-003  
  400.00  9.2946E-003  
  400.50  9.3765E-003  
  401.00  9.6513E-003  
  401.50  9.8592E-003  
  402.00  1.0084E-002  
  402.50  1.0250E-002  
  403.00  1.0281E-002  
  403.50  1.0216E-002  
  404.00  1.0115E-002  
  404.50  1.0268E-002  
  405.00  1.0500E-002  
  405.50  1.0857E-002  
  406.00  1.1038E-002  
  406.50  1.0968E-002  
  407.00  1.0824E-002  
  407.50  1.0815E-002  
  408.00  1.0904E-002  
  408.50  1.1270E-002  
  409.00  1.1759E-002  
  409.50  1.2002E-002  
  410.00  1.2196E-002  
  410.50  1.2169E-002  
  411.00  1.2024E-002  
  411.50  1.2033E-002  
  412.00  1.2169E-002  
  412.50  1.2493E-002  
  413.00  1.2844E-002  
  413.50  1.3086E-002  
  414.00  1.3212E-002  
  414.50  1.3329E-002  
  415.00  1.3556E-002  
  415.50  1.3793E-002  
  416.00  1.4018E-002  
  416.50  1.4221E-002  
  417.00  1.4435E-002  
  417.50  1.4480E-002  
  418.00  1.4477E-002  
  418.50  1.4364E-002  
  419.00  1.4511E-002  
  419.50  1.4815E-002  
  420.00  1.5105E-002  
  420.50  1.5351E-002  
  421.00  1.5529E-002  
  421.50  1.5718E-002  
  422.00  1.5781E-002  
  422.50  1.5839E-002  
  423.00  1.5983E-002  
  423.50  1.6105E-002  
  424.00  1.6417E-002  
  424.50  1.6781E-002  
  425.00  1.6968E-002  
  425.50  1.7184E-002  
  426.00  1.7215E-002  
  426.50  1.7089E-002  
  427.00  1.7046E-002  
  427.50  1.7199E-002  
  428.00  1.7469E-002  
  428.50  1.7896E-002  
  429.00  1.8261E-002  
  429.50  1.8395E-002  
  430.00  1.8560E-002  
  430.50  1.8823E-002  
  431.00  1.8838E-002  
  431.50  1.9030E-002  
  432.00  1.9159E-002  
  432.50  1.9161E-002  
  433.00  1.9403E-002  
  433.50  1.9728E-002  
  434.00  2.0250E-002  
  434.50  2.0848E-002  
  435.00  2.1125E-002  
  435.50  2.1142E-002  
  436.00  2.1319E-002  
  436.50  2.1413E-002  
  437.00  2.1440E-002  
  437.50  2.1371E-002  
  438.00  2.1366E-002  
  438.50  2.1817E-002  
  439.00  2.2304E-002  
  439.50  2.2752E-002  
  440.00  2.3200E-002  
  440.50  2.3618E-002  
  441.00  2.3832E-002  
  441.50  2.3998E-002  
  442.00  2.4064E-002  
  442.50  2.4256E-002  
  443.00  2.4545E-002  
  443.50  2.4899E-002  
  444.00  2.5186E-002  
  444.50  2.5234E-002  
  445.00  2.5124E-002  
  445.50  2.4988E-002  
  446.00  2.4982E-002  
  446.50  2.5195E-002  
  447.00  2.5576E-002  
  447.50  2.6037E-002  
  448.00  2.6379E-002  
  448.50  2.6534E-002  
  449.00  2.6606E-002  
  449.50  2.6729E-002  
  450.00  2.6860E-002  
  450.50  2.7136E-002  
  451.00  2.7342E-002  
  451.50  2.7792E-002  
  452.00  2.8240E-002  
  452.50  2.8731E-002  
  453.00  2.9192E-002  
  453.50  2.9330E-002  
  454.00  2.9421E-002  
  454.50  2.9205E-002  
  455.00  2.9371E-002  
  455.50  2.9697E-002  
  456.00  3.0206E-002  
  456.50  3.0839E-002  
  457.00  3.1372E-002  
  457.50  3.1730E-002  
  458.00  3.1902E-002  
  458.50  3.1968E-002  
  459.00  3.2198E-002  
  459.50  3.2563E-002  
  460.00  3.3062E-002  
  460.50  3.3342E-002  
  461.00  3.3885E-002  
  461.50  3.4447E-002  
  462.00  3.4854E-002  
  462.50  3.5119E-002  
  463.00  3.5368E-002  
  463.50  3.5450E-002  
  464.00  3.5780E-002  
  464.50  3.6323E-002  
  465.00  3.6717E-002  
  465.50  3.6957E-002  
  466.00  3.6842E-002  
  466.50  3.6903E-002  
  467.00  3.7379E-002  
  467.50  3.8139E-002  
  468.00  3.8813E-002  
  468.50  3.9225E-002  
  469.00  3.9524E-002  
  469.50  4.0071E-002  
  470.00  4.0679E-002  
  470.50  4.1281E-002  
  471.00  4.1421E-002  
  471.50  4.1418E-002  
  472.00  4.1590E-002  
  472.50  4.1922E-002  
  473.00  4.2484E-002  
  473.50  4.3072E-002  
  474.00  4.3705E-002  
  474.50  4.4228E-002  
  475.00  4.4416E-002  
  475.50  4.4279E-002  
  476.00  4.4175E-002  
  476.50  4.4395E-002  
  477.00  4.4904E-002  
  477.50  4.5371E-002  
  478.00  4.5666E-002  
  478.50  4.5765E-002  
  479.00  4.6236E-002  
  479.50  4.6843E-002  
  480.00  4.7483E-002  
  480.50  4.7822E-002  
  481.00  4.7711E-002  
  481.50  4.7682E-002  
  482.00  4.7889E-002  
  482.50  4.8235E-002  
  483.00  4.8643E-002  
  483.50  4.8961E-002  
  484.00  4.9326E-002  
  484.50  4.9752E-002  
  485.00  5.0015E-002  
  485.50  5.0073E-002  
  486.00  5.0058E-002  
  486.50  5.0233E-002  
  487.00  5.0517E-002  
  487.50  5.0724E-002  
  488.00  5.0847E-002  
  488.50  5.1179E-002  
  489.00  5.1530E-002  
  489.50  5.1997E-002  
  490.00  5.2107E-002  
  490.50  5.2244E-002  
  491.00  5.2464E-002  
  491.50  5.2664E-002  
  492.00  5.2822E-002  
  492.50  5.2807E-002  
  493.00  5.2868E-002  
  493.50  5.3176E-002  
  494.00  5.3396E-002  
  494.50  5.3664E-002  
  495.00  5.3803E-002  
  495.50  5.4065E-002  
  496.00  5.4508E-002  
  496.50  5.4807E-002  
  497.00  5.5169E-002  
  497.50  5.5459E-002  
  498.00  5.5748E-002  
  498.50  5.6243E-002  
  499.00  5.6599E-002  
  499.50  5.7038E-002  
  500.00  5.7441E-002  
  500.50  5.7747E-002  
  501.00  5.8139E-002  
  501.50  5.8462E-002  
  502.00  5.8787E-002  
  502.50  5.9150E-002  
  503.00  5.9530E-002  
  503.50  5.9943E-002  
  504.00  6.0313E-002  
  504.50  6.0645E-002  
  505.00  6.1012E-002  
  505.50  6.1313E-002  
  506.00  6.1530E-002  
  506.50  6.1881E-002  
  507.00  6.2420E-002  
  507.50  6.3024E-002  
  508.00  6.3530E-002  
  508.50  6.3793E-002  
  509.00  6.3946E-002  
  509.50  6.4205E-002  
  510.00  6.4643E-002  
  510.50  6.5174E-002  
  511.00  6.5819E-002  
  511.50  6.6252E-002  
  512.00  6.6734E-002  
  512.50  6.7179E-002  
  513.00  6.7559E-002  
  513.50  6.7931E-002  
  514.00  6.8337E-002  
  514.50  6.8843E-002  
  515.00  6.9404E-002  
  515.50  6.9910E-002  
  516.00  7.0315E-002  
  516.50  7.0712E-002  
  517.00  7.1169E-002  
  517.50  7.1537E-002  
  518.00  7.2074E-002  
  518.50  7.2688E-002  
  519.00  7.3470E-002  
  519.50  7.4053E-002  
  520.00  7.4532E-002  
  520.50  7.4938E-002  
  521.00  7.5445E-002  
  521.50  7.6111E-002  
  522.00  7.6562E-002  
  522.50  7.6888E-002  
  523.00  7.7213E-002  
  523.50  7.7523E-002  
  524.00  7.8130E-002  
  524.50  7.8708E-002  
  525.00  7.9597E-002  
  525.50  8.0298E-002  
  526.00  8.0839E-002  
  526.50  8.1151E-002  
  527.00  8.1533E-002  
  527.50  8.2256E-002  
  528.00  8.3228E-002  
  528.50  8.4267E-002  
  529.00  8.5050E-002  
  529.50  8.5525E-002  
  530.00  8.5910E-002  
  530.50  8.6268E-002  
  531.00  8.6713E-002  
  531.50  8.7332E-002  
  532.00  8.8066E-002  
  532.50  8.8727E-002  
  533.00  8.9417E-002  
  533.50  9.0102E-002  
  534.00  9.0756E-002  
  534.50  9.1444E-002  
  535.00  9.2056E-002  
  535.50  9.2724E-002  
  536.00  9.3356E-002  
  536.50  9.3994E-002  
  537.00  9.4720E-002  
  537.50  9.5552E-002  
  538.00  9.6297E-002  
  538.50  9.6882E-002  
  539.00  9.7514E-002  
  539.50  9.8149E-002  
  540.00  9.8951E-002  
  540.50  9.9637E-002  
  541.00  1.0047E-001  
  541.50  1.0133E-001  
  542.00  1.0193E-001  
  542.50  1.0251E-001  
  543.00  1.0328E-001  
  543.50  1.0410E-001  
  544.00  1.0498E-001  
  544.50  1.0559E-001  
  545.00  1.0618E-001  
  545.50  1.0684E-001  
  546.00  1.0773E-001  
  546.50  1.0841E-001  
  547.00  1.0915E-001  
  547.50  1.0972E-001  
  548.00  1.1028E-001  
  548.50  1.1116E-001  
  549.00  1.1217E-001  
  549.50  1.1312E-001  
  550.00  1.1375E-001  
  550.50  1.1438E-001  
  551.00  1.1529E-001  
  551.50  1.1605E-001  
  552.00  1.1688E-001  
  552.50  1.1739E-001  
  553.00  1.1817E-001  
  553.50  1.1900E-001  
  554.00  1.1988E-001  
  554.50  1.2060E-001  
  555.00  1.2141E-001  
  555.50  1.2203E-001  
  556.00  1.2287E-001  
  556.50  1.2345E-001  
  557.00  1.2416E-001  
  557.50  1.2501E-001  
  558.00  1.2583E-001  
  558.50  1.2659E-001  
  559.00  1.2744E-001  
  559.50  1.2822E-001  
  560.00  1.2944E-001  
  560.50  1.3007E-001  
  561.00  1.3110E-001  
  561.50  1.3215E-001  
  562.00  1.3301E-001  
  562.50  1.3381E-001  
  563.00  1.3408E-001  
  563.50  1.3478E-001  
  564.00  1.3557E-001  
  564.50  1.3651E-001  
  565.00  1.3745E-001  
  565.50  1.3850E-001  
  566.00  1.3925E-001  
  566.50  1.3983E-001  
  567.00  1.4022E-001  
  567.50  1.4096E-001  
  568.00  1.4178E-001  
  568.50  1.4241E-001  
  569.00  1.4299E-001  
  569.50  1.4354E-001  
  570.00  1.4425E-001  
  570.50  1.4517E-001  
  571.00  1.4614E-001  
  571.50  1.4718E-001  
  572.00  1.4814E-001  
  572.50  1.4899E-001  
  573.00  1.4994E-001  
  573.50  1.5074E-001  
  574.00  1.5126E-001  
  574.50  1.5193E-001  
  575.00  1.5256E-001  
  575.50  1.5338E-001  
  576.00  1.5403E-001  
  576.50  1.5464E-001  
  577.00  1.5548E-001  
  577.50  1.5633E-001  
  578.00  1.5703E-001  
  578.50  1.5780E-001  
  579.00  1.5828E-001  
  579.50  1.5910E-001  
  580.00  1.6010E-001  
  580.50  1.6122E-001  
  581.00  1.6247E-001  
  581.50  1.6299E-001  
  582.00  1.6328E-001  
  582.50  1.6338E-001  
  583.00  1.6379E-001  
  583.50  1.6452E-001  
  584.00  1.6553E-001  
  584.50  1.6652E-001  
  585.00  1.6756E-001  
  585.50  1.6841E-001  
  586.00  1.6931E-001  
  586.50  1.7026E-001  
  587.00  1.7095E-001  
  587.50  1.7211E-001  
  588.00  1.7254E-001  
  588.50  1.7318E-001  
  589.00  1.7345E-001  
  589.50  1.7422E-001  
  590.00  1.7504E-001  
  590.50  1.7592E-001  
  591.00  1.7679E-001  
  591.50  1.7808E-001  
  592.00  1.7919E-001  
  592.50  1.7996E-001  
  593.00  1.8072E-001  
  593.50  1.8145E-001  
  594.00  1.8246E-001  
  594.50  1.8325E-001  
  595.00  1.8359E-001  
  595.50  1.8384E-001  
  596.00  1.8458E-001  
  596.50  1.8542E-001  
  597.00  1.8630E-001  
  597.50  1.8670E-001  
  598.00  1.8706E-001  
  598.50  1.8773E-001  
  599.00  1.8857E-001  
  599.50  1.8950E-001  
  600.00  1.9019E-001  
  600.50  1.9081E-001  
  601.00  1.9136E-001  
  601.50  1.9205E-001  
  602.00  1.9305E-001  
  602.50  1.9405E-001  
  603.00  1.9476E-001  
  603.50  1.9492E-001  
  604.00  1.9533E-001  
  604.50  1.9608E-001  
  605.00  1.9704E-001  
  605.50  1.9774E-001  
  606.00  1.9832E-001  
  606.50  1.9931E-001  
  607.00  2.0002E-001  
  607.50  2.0087E-001  
  608.00  2.0134E-001  
  608.50  2.0205E-001  
  609.00  2.0258E-001  
  609.50  2.0331E-001  
  610.00  2.0447E-001  
  610.50  2.0554E-001  
  611.00  2.0628E-001  
  611.50  2.0682E-001  
  612.00  2.0766E-001  
  612.50  2.0853E-001  
  613.00  2.0903E-001  
  613.50  2.0932E-001  
  614.00  2.0991E-001  
  614.50  2.1048E-001  
  615.00  2.1093E-001  
  615.50  2.1132E-001  
  616.00  2.1188E-001  
  616.50  2.1260E-001  
  617.00  2.1344E-001  
  617.50  2.1426E-001  
  618.00  2.1526E-001  
  618.50  2.1584E-001  
  619.00  2.1657E-001  
  619.50  2.1706E-001  
  620.00  2.1767E-001  
  620.50  2.1818E-001  
  621.00  2.1874E-001  
  621.50  2.1904E-001  
  622.00  2.1913E-001  
  622.50  2.1919E-001  
  623.00  2.1963E-001  
  623.50  2.2025E-001  
  624.00  2.2082E-001  
  624.50  2.2165E-001  
  625.00  2.2249E-001  
  625.50  2.2321E-001  
  626.00  2.2359E-001  
  626.50  2.2403E-001  
  627.00  2.2504E-001  
  627.50  2.2572E-001  
  628.00  2.2663E-001  
  628.50  2.2724E-001  
  629.00  2.2792E-001  
  629.50  2.2881E-001  
  630.00  2.2959E-001  
  630.50  2.3016E-001  
  631.00  2.3081E-001  
  631.50  2.3185E-001  
  632.00  2.3264E-001  
  632.50  2.3294E-001  
  633.00  2.3337E-001  
  633.50  2.3426E-001  
  634.00  2.3533E-001  
  634.50  2.3584E-001  
  635.00  2.3620E-001  
  635.50  2.3676E-001  
  636.00  2.3754E-001  
  636.50  2.3846E-001  
  637.00  2.3932E-001  
  637.50  2.3976E-001  
  638.00  2.4010E-001  
  638.50  2.4065E-001  
  639.00  2.4124E-001  
  639.50  2.4205E-001  
  640.00  2.4278E-001  
  640.50  2.4356E-001  
  641.00  2.4455E-001  
  641.50  2.4517E-001  
  642.00  2.4576E-001  
  642.50  2.4620E-001  
  643.00  2.4650E-001  
  643.50  2.4690E-001  
  644.00  2.4712E-001  
  644.50  2.4784E-001  
  645.00  2.4898E-001  
  645.50  2.4937E-001  
  646.00  2.4948E-001  
  646.50  2.4947E-001  
  647.00  2.5046E-001  
  647.50  2.5148E-001  
  648.00  2.5210E-001  
  648.50  2.5270E-001  
  649.00  2.5334E-001  
  649.50  2.5415E-001  
  650.00  2.5455E-001  
  650.50  2.5570E-001  
  651.00  2.5681E-001  
  651.50  2.5773E-001  
  652.00  2.5841E-001  
  652.50  2.5844E-001  
  653.00  2.5882E-001  
  653.50  2.5854E-001  
  654.00  2.5936E-001  
  654.50  2.6007E-001  
  655.00  2.6096E-001  
  655.50  2.6125E-001  
  656.00  2.6184E-001  
  656.50  2.6240E-001  
  657.00  2.6290E-001  
  657.50  2.6312E-001  
  658.00  2.6365E-001  
  658.50  2.6449E-001  
  659.00  2.6503E-001  
  659.50  2.6529E-001  
  660.00  2.6598E-001  
  660.50  2.6686E-001  
  661.00  2.6771E-001  
  661.50  2.6791E-001  
  662.00  2.6763E-001  
  662.50  2.6777E-001  
  663.00  2.6791E-001  
  663.50  2.6855E-001  
  664.00  2.6922E-001  
  664.50  2.6916E-001  
  665.00  2.6933E-001  
  665.50  2.6914E-001  
  666.00  2.6989E-001  
  666.50  2.7052E-001  
  667.00  2.7131E-001  
  667.50  2.7215E-001  
  668.00  2.7323E-001  
  668.50  2.7367E-001  
  669.00  2.7357E-001  
  669.50  2.7351E-001  
  670.00  2.7386E-001  
  670.50  2.7426E-001  
  671.00  2.7492E-001  
  671.50  2.7543E-001  
  672.00  2.7615E-001  
  672.50  2.7618E-001  
  673.00  2.7656E-001  
  673.50  2.7627E-001  
  674.00  2.7632E-001  
  674.50  2.7664E-001  
  675.00  2.7747E-001  
  675.50  2.7790E-001  
  676.00  2.7812E-001  
  676.50  2.7815E-001  
  677.00  2.7855E-001  
  677.50  2.7843E-001  
  678.00  2.7826E-001  
  678.50  2.7821E-001  
  679.00  2.7856E-001  
  679.50  2.7923E-001  
  680.00  2.8010E-001  
  680.50  2.8113E-001  
  681.00  2.8165E-001  
  681.50  2.8172E-001  
  682.00  2.8197E-001  
  682.50  2.8258E-001  
  683.00  2.8293E-001  
  683.50  2.8261E-001  
  684.00  2.8251E-001  
  684.50  2.8282E-001  
  685.00  2.8299E-001  
  685.50  2.8361E-001  
  686.00  2.8392E-001  
  686.50  2.8503E-001  
  687.00  2.8628E-001  
  687.50  2.8761E-001  
  688.00  2.8808E-001  
  688.50  2.8741E-001  
  689.00  2.8690E-001  
  689.50  2.8760E-001  
  690.00  2.8921E-001  
  690.50  2.9055E-001  
  691.00  2.9073E-001  
  691.50  2.8999E-001  
  692.00  2.8962E-001  
  692.50  2.8923E-001  
  693.00  2.8938E-001  
  693.50  2.8951E-001  
  694.00  2.9018E-001  
  694.50  2.9081E-001  
  695.00  2.9129E-001  
  695.50  2.9125E-001  
  696.00  2.9163E-001  
  696.50  2.9322E-001  
  697.00  2.9452E-001  
  697.50  2.9495E-001  
  698.00  2.9442E-001  
  698.50  2.9372E-001  
  699.00  2.9348E-001  
  699.50  2.9371E-001  
  700.00  2.9464E-001  
  700.50  2.9487E-001  
  701.00  2.9541E-001  
  701.50  2.9607E-001  
  702.00  2.9676E-001  
  702.50  2.9704E-001  
  703.00  2.9687E-001  
  703.50  2.9708E-001  
  704.00  2.9775E-001  
  704.50  2.9847E-001  
  705.00  2.9886E-001  
  705.50  2.9873E-001  
  706.00  2.9852E-001  
  706.50  2.9811E-001  
  707.00  2.9799E-001  
  707.50  2.9903E-001  
  708.00  3.0032E-001  
  708.50  3.0150E-001  
  709.00  3.0205E-001  
  709.50  3.0260E-001  
  710.00  3.0306E-001  
  710.50  3.0359E-001  
  711.00  3.0377E-001  
  711.50  3.0365E-001  
  712.00  3.0359E-001  
  712.50  3.0363E-001  
  713.00  3.0390E-001  
  713.50  3.0457E-001  
  714.00  3.0572E-001  
  714.50  3.0640E-001  
  715.00  3.0643E-001  
  715.50  3.0612E-001  
  716.00  3.0658E-001  
  716.50  3.0705E-001  
  717.00  3.0718E-001  
  717.50  3.0758E-001  
  718.00  3.0798E-001  
  718.50  3.0821E-001  
  719.00  3.0803E-001  
  719.50  3.0839E-001  
  720.00  3.0858E-001  
  720.50  3.0818E-001  
  721.00  3.0793E-001  
  721.50  3.0834E-001  
  722.00  3.0935E-001  
  722.50  3.0994E-001  
  723.00  3.1031E-001  
  723.50  3.1115E-001  
  724.00  3.1155E-001  
  724.50  3.1177E-001  
  725.00  3.1170E-001  
  725.50  3.1173E-001  
  726.00  3.1146E-001  
  726.50  3.1164E-001  
  727.00  3.1281E-001  
  727.50  3.1430E-001  
  728.00  3.1469E-001  
  728.50  3.1466E-001  
  729.00  3.1511E-001  
  729.50  3.1535E-001  
  730.00  3.1560E-001  
  730.50  3.1497E-001  
  731.00  3.1501E-001  
  731.50  3.1542E-001  
  732.00  3.1571E-001  
  732.50  3.1666E-001  
  733.00  3.1809E-001  
  733.50  3.1936E-001  
  734.00  3.2012E-001  
  734.50  3.2069E-001  
  735.00  3.2062E-001  
  735.50  3.1903E-001  
  736.00  3.1847E-001  
  736.50  3.1920E-001  
  737.00  3.1977E-001  
  737.50  3.1991E-001  
  738.00  3.2030E-001  
  738.50  3.2162E-001  
  739.00  3.2320E-001  
  739.50  3.2420E-001  
  740.00  3.2382E-001  
  740.50  3.2221E-001  
  741.00  3.2181E-001  
  741.50  3.2311E-001  
  742.00  3.2481E-001  
  742.50  3.2511E-001  
  743.00  3.2470E-001  
  743.50  3.2482E-001  
  744.00  3.2528E-001  
  744.50  3.2600E-001  
  745.00  3.2676E-001  
  745.50  3.2678E-001  
  746.00  3.2644E-001  
  746.50  3.2618E-001  
  747.00  3.2606E-001  
  747.50  3.2689E-001  
  748.00  3.2720E-001  
  748.50  3.2784E-001  
  749.00  3.2744E-001  
  749.50  3.2761E-001  
  750.00  3.2742E-001  
  750.50  3.2746E-001  
  751.00  3.2804E-001  
  751.50  3.2930E-001  
  752.00  3.3127E-001  
  752.50  3.3279E-001  
  753.00  3.3315E-001  
  753.50  3.3205E-001  
  754.00  3.3117E-001  
  754.50  3.3207E-001  
  755.00  3.3369E-001  
  755.50  3.3438E-001  
  756.00  3.3494E-001  
  756.50  3.3586E-001  
  757.00  3.3592E-001  
  757.50  3.3502E-001  
  758.00  3.3421E-001  
  758.50  3.3434E-001  
  759.00  3.3477E-001  
  759.50  3.3638E-001  
  760.00  3.3675E-001  
  760.50  3.3650E-001  
  761.00  3.3663E-001  
  761.50  3.3713E-001  
  762.00  3.3797E-001  
  762.50  3.3842E-001  
  763.00  3.3879E-001  
  763.50  3.3816E-001  
  764.00  3.3864E-001  
  764.50  3.3998E-001  
  765.00  3.4021E-001  
  765.50  3.3999E-001  
  766.00  3.3986E-001  
  766.50  3.4018E-001  
  767.00  3.4077E-001  
  767.50  3.4181E-001  
  768.00  3.4256E-001  
  768.50  3.4250E-001  
  769.00  3.4260E-001  
  769.50  3.4308E-001  
  770.00  3.4350E-001  
  770.50  3.4373E-001  
  771.00  3.4397E-001  
  771.50  3.4412E-001  
  772.00  3.4418E-001  
  772.50  3.4465E-001  
  773.00  3.4432E-001  
  773.50  3.4534E-001  
  774.00  3.4627E-001  
  774.50  3.4720E-001  
  775.00  3.4556E-001  
  775.50  3.4513E-001  
  776.00  3.4495E-001  
  776.50  3.4528E-001  
  777.00  3.4555E-001  
  777.50  3.4631E-001  
  778.00  3.4718E-001  
  778.50  3.4766E-001  
  779.00  3.4883E-001  
  779.50  3.4913E-001  
  780.00  3.4921E-001  
  780.50  3.4952E-001  
  781.00  3.5005E-001  
  781.50  3.4999E-001  
  782.00  3.4995E-001  
  782.50  3.5150E-001  
  783.00  3.5331E-001  
  783.50  3.5395E-001  
  784.00  3.5410E-001  
  784.50  3.5387E-001  
  785.00  3.5372E-001  
  785.50  3.5532E-001  
  786.00  3.5702E-001  
  786.50  3.5724E-001  
  787.00  3.5608E-001  
  787.50  3.5596E-001  
  788.00  3.5584E-001  
  788.50  3.5546E-001  
  789.00  3.5480E-001  
  789.50  3.5457E-001  
  790.00  3.5549E-001  
  790.50  3.5632E-001  
  791.00  3.5666E-001  
  791.50  3.5738E-001  
  792.00  3.5750E-001  
  792.50  3.5791E-001  
  793.00  3.5871E-001  
  793.50  3.5822E-001  
  794.00  3.5754E-001  
  794.50  3.5820E-001  
  795.00  3.6042E-001  
  795.50  3.6171E-001  
  796.00  3.6279E-001  
  796.50  3.6393E-001  
  797.00  3.6461E-001  
  797.50  3.6426E-001  
  798.00  3.6374E-001  
  798.50  3.6513E-001  
  799.00  3.6410E-001  
  799.50  3.6380E-001  
  800.00  3.6259E-001  
  800.50  3.6304E-001  
  801.00  3.6357E-001  
  801.50  3.6446E-001  
  802.00  3.6463E-001  
  802.50  3.6456E-001  
  803.00  3.6510E-001  
  803.50  3.6550E-001  
  804.00  3.6573E-001  
  804.50  3.6658E-001  
  805.00  3.6785E-001  
  805.50  3.6917E-001  
  806.00  3.7056E-001  
  806.50  3.7059E-001  
  807.00  3.6945E-001  
  807.50  3.6850E-001  
  808.00  3.7115E-001  
  808.50  3.7152E-001  
  809.00  3.7059E-001  
  809.50  3.7124E-001  
  810.00  3.7377E-001  
  810.50  3.7420E-001  
  811.00  3.7418E-001  
  811.50  3.7463E-001  
  812.00  3.7523E-001  
  812.50  3.7413E-001  
  813.00  3.7385E-001  
  813.50  3.7342E-001  
  814.00  3.7304E-001  
  814.50  3.7426E-001  
  815.00  3.7748E-001  
  815.50  3.7932E-001  
  816.00  3.7895E-001  
  816.50  3.7792E-001  
  817.00  3.7742E-001  
  817.50  3.7697E-001  
  818.00  3.7935E-001  
  818.50  3.7977E-001  
  819.00  3.7907E-001  
  819.50  3.7971E-001  
  820.00  3.8084E-001  
  820.50  3.8043E-001  
  821.00  3.8096E-001  
  821.50  3.8315E-001  
  822.00  3.8397E-001  
  822.50  3.8220E-001  
  823.00  3.8126E-001  
  823.50  3.8227E-001  
  824.00  3.8444E-001  
  824.50  3.8320E-001  
  825.00  3.8306E-001  
  825.50  3.8439E-001  
  826.00  3.8565E-001  
  826.50  3.8467E-001  
  827.00  3.8475E-001  
  827.50  3.8475E-001  
  828.00  3.8555E-001  
  828.50  3.8639E-001  
  829.00  3.8843E-001  
  829.50  3.8880E-001  
  830.00  3.8813E-001  
  830.50  3.8679E-001  
  831.00  3.8637E-001  
  831.50  3.8738E-001  
  832.00  3.8977E-001  
  832.50  3.9063E-001  
  833.00  3.9101E-001  
  833.50  3.8993E-001  
  834.00  3.9078E-001  
  834.50  3.9180E-001  
  835.00  3.9131E-001  
  835.50  3.9094E-001  
  836.00  3.9323E-001  
  836.50  3.9483E-001  
  837.00  3.9365E-001  
  837.50  3.9381E-001  
  838.00  3.9462E-001  
  838.50  3.9556E-001  
  839.00  3.9623E-001  
  839.50  3.9636E-001  
  840.00  3.9710E-001  
  840.50  3.9635E-001  
  841.00  3.9577E-001  
  841.50  3.9463E-001  
  842.00  3.9508E-001  
  842.50  3.9520E-001  
  843.00  3.9646E-001  
  843.50  3.9731E-001  
  844.00  3.9722E-001  
  844.50  3.9518E-001  
  845.00  3.9573E-001  
  845.50  3.9788E-001  
  846.00  4.0154E-001  
  846.50  4.0255E-001  
  847.00  4.0298E-001  
  847.50  4.0230E-001  
  848.00  4.0173E-001  
  848.50  4.0112E-001  
  849.00  4.0025E-001  
  849.50  4.0131E-001  
  850.00  4.0133E-001  
  850.50  4.0221E-001  
  851.00  4.0437E-001  
  851.50  4.0644E-001  
  852.00  4.0648E-001  
  852.50  4.0520E-001  
  853.00  4.0422E-001  
  853.50  4.0343E-001  
  854.00  4.0162E-001  
  854.50  4.0119E-001  
  855.00  4.0451E-001  
  855.50  4.0850E-001  
  856.00  4.0861E-001  
  856.50  4.0745E-001  
  857.00  4.0584E-001  
  857.50  4.0554E-001  
  858.00  4.0487E-001  
  858.50  4.0461E-001  
  859.00  4.0661E-001  
  859.50  4.0839E-001  
  860.00  4.1132E-001  
  860.50  4.1048E-001  
  861.00  4.1150E-001  
  861.50  4.1119E-001  
  862.00  4.1061E-001  
  862.50  4.1225E-001  
  863.00  4.1224E-001  
  863.50  4.1010E-001  
  864.00  4.0709E-001  
  864.50  4.0819E-001  
  865.00  4.1028E-001  
  865.50  4.1234E-001  
  866.00  4.1248E-001  
  866.50  4.0930E-001  
  867.00  4.0683E-001  
  867.50  4.0855E-001  
  868.00  4.1046E-001  
  868.50  4.1215E-001  
  869.00  4.1397E-001  
  869.50  4.1358E-001  
  870.00  4.1325E-001  
  870.50  4.1386E-001  
  871.00  4.1501E-001  
  871.50  4.1462E-001  
  872.00  4.1039E-001  
  872.50  4.1020E-001  
  873.00  4.1377E-001  
  873.50  4.1788E-001  
  874.00  4.1892E-001  
  874.50  4.1714E-001  
  875.00  4.1239E-001  
  875.50  4.0986E-001  
  876.00  4.1089E-001  
  876.50  4.1154E-001  
  877.00  4.1190E-001  
  877.50  4.1534E-001  
  878.00  4.1466E-001  
  878.50  4.1345E-001  
  879.00  4.1499E-001  
  879.50  4.1679E-001  
  880.00  4.1749E-001  
  880.50  4.1864E-001  
  881.00  4.2037E-001  
  881.50  4.1949E-001  
  882.00  4.1553E-001  
  882.50  4.1280E-001  
  883.00  4.1474E-001  
  883.50  4.1619E-001  
  884.00  4.1782E-001  
  884.50  4.2113E-001  
  885.00  4.2362E-001  
  885.50  4.2105E-001  
  886.00  4.1910E-001  
  886.50  4.1734E-001  
  887.00  4.1749E-001  
  887.50  4.1838E-001  
  888.00  4.2018E-001  
  888.50  4.2046E-001  
  889.00  4.1981E-001  
  889.50  4.2104E-001  
  890.00  4.2160E-001  
  890.50  4.1944E-001  
  891.00  4.1994E-001  
  891.50  4.1937E-001  
  892.00  4.1967E-001  
  892.50  4.1926E-001  
  893.00  4.1894E-001  
  893.50  4.2036E-001  
  894.00  4.2339E-001  
  894.50  4.2313E-001  
  895.00  4.1978E-001  
  895.50  4.2105E-001  
  896.00  4.2290E-001  
  896.50  4.2483E-001  
  897.00  4.2926E-001  
  897.50  4.2983E-001  
  898.00  4.2900E-001  
  898.50  4.3035E-001  
  899.00  4.3308E-001  
  899.50  8.5703E-003  
