# data from Query 1985 database
# ;  Optical constants for Fe
# ;
# ;    Lambda (A)            n            k
290.0	1.829
300.0	1.902
310.0	1.976
320.0	2.061
330.0	2.141
340.0	2.217
350.0	2.295
360.0	2.375
370.0	2.454
380.0	2.526
390.0	2.588
400.0	2.644
410.0	2.698
420.0	2.753
430.0	2.806
440.0	2.858
450.0	2.906
460.0	2.949
470.0	2.989
480.0	3.019
490.0	3.043
500.0	3.067
510.0	3.091
520.0	3.113
530.0	3.134
540.0	3.153
550.0	3.171
560.0	3.190
570.0	3.210
580.0	3.223
590.0	3.241
600.0	3.259
610.0	3.277
620.0	3.297
630.0	3.317
640.0	3.336
650.0	3.361
660.0	3.383
670.0	3.404
680.0	3.423
690.0	3.443
700.0	3.463
710.0	3.485
720.0	3.507
730.0	3.527
740.0	3.549
750.0	3.569
760.0	3.595
770.0	3.619
780.0	3.642
790.0	3.669
800.0	3.693
810.0	3.714
820.0	3.741
830.0	3.769
840.0	3.795
850.0	3.822
860.0	3.852
870.0	3.879
880.0	3.903
890.0	3.926
